*FILE_COMMENT	""
*FILE_MD5	""
*FILE_MEMO	"Niフィルター"
*FILE_OPERATOR	"Administrator"
*FILE_PACKAGE_NAME	""
*FILE_PART_ID	"GeneralMeasurement"
*FILE_SAMPLE	"Fe"
*FILE_SYSTEM_NAME	"MiniFlex"
*FILE_TYPE	"RAS_RAW"
*FILE_USERGROUP	"Administrators"
*FILE_VERSION	"1"
*HW_ATTACHMENT_NAME_INTERNAL	"StandardSampleHolder"
*HW_COUNTER_ID-0	"CUT0025"
*HW_COUNTER_ID-2	"CMC0020"
*HW_COUNTER_MONOCHRO_ID	"CMC0020"
*HW_COUNTER_MONOCHRO_NAME	"None"
*HW_COUNTER_MONOCHRO_NAME_INTERNAL	"None"
*HW_COUNTER_NAME_INTERNAL	"DteX100"
*HW_COUNTER_NAME-0	"DteX100"
*HW_COUNTER_NAME-1	"None"
*HW_COUNTER_NAME-2	"None"
*HW_COUNTER_PIXEL_SIZE	"0.1"
*HW_COUNTER_SELECT_NAME	"DteX100"
*HW_GONIOMETER_ID	"GON0021"
*HW_GONIOMETER_NAME	"Standard"
*HW_GONIOMETER_NAME_INTERNAL	"Standard"
*HW_GONIOMETER_RADIUS-0	"90.0"
*HW_GONIOMETER_RADIUS-1	"114.0"
*HW_GONIOMETER_RADIUS-2	"91.5"
*HW_GONIOMETER_RADIUS-3	"150.0"
*HW_GONIOMETER_RADIUS-4	"103.4"
*HW_GONIOMETER_RADIUS-5	"150.0"
*HW_GONIOMETER_RADIUS-6	"46.6"
*HW_GONIOMETER_RADIUS-7	"150.0"
*HW_I_CBO_ID	"CBO0020"
*HW_I_CBO_NAME	"No_unit"
*HW_I_CBO_NAME_INTERNAL	"No_unit"
*HW_I_MONOCHRO_NAME_INTERNAL	"Manual"
*HW_I_OPT_ID-1	"CBO0020"
*HW_I_PRIMARY_NAME_INTERNAL	"No_unit"
*HW_I_SLIT_NAME_INTERNAL	"Manual"
*HW_R_ATTENUATER_AUTOMODE	"0"
*HW_R_ATTENUATER_ID	"ATN0020"
*HW_R_ATTENUATER_NAME	"No_unit"
*HW_R_ATTENUATOR_NAME_INTERNAL	"No_unit"
*HW_R_OPT_ID-1	"RCR0023"
*HW_R_OPT_ID-4	"ATN0020"
*HW_R_ROD_ID	"RCR0023"
*HW_R_ROD_NAME	"No_unit"
*HW_R_ROD_NAME_INTERNAL	"No_unit"
*HW_R_RPS_NAME_INTERNAL	"Manual"
*HW_R_RS_NAME_INTERNAL	"Manual"
*HW_R_SS_NAME_INTERNAL	"Manual"
*HW_SAMPLE_HOLDER_NAME_INTERNAL	"None"
*HW_SAMPLE_NAME	"None"
*HW_SAMPLE_NAME_INTERNAL	"None"
*HW_SAMPLE_PLATE_NAME	"None"
*HW_SAMPLE_PLATE_NAME_INTERNAL	"None"
*HW_SAMPLE_SPACER_NAME	"None"
*HW_SAMPLE_SPACER_NAME_INTERNAL	"None"
*HW_USERINFO_CATALOG_NO	""
*HW_USERINFO_INSTRUMENT_ID	""
*HW_USERINFO_INSTRUMENT_NAME	""
*HW_USERINFO_INSTRUMENT_NO	""
*HW_USERINFO_MODEL	""
*HW_USERINFO_ORDER_NO	""
*HW_USERINFO_SERIAL_NO	""
*HW_USERINFO_VERIFY_INSTRUMENT_ID	"00-07-fe-03-07-9c"
*HW_VER_RCD_COUNTER_UNIT	"N/A"
*HW_VER_RCD_CPU	"10.1.3"
*HW_VER_RCD_FPGA	"4.0.4"
*HW_VER_RCD_GONIO_UNIT	"0.0.0"
*HW_VER_RCD_INCIDENT_UNIT	"0.0.0"
*HW_VER_RCD_RECEIVING_UNIT	"0.0.0"
*HW_VER_RCD_TYPE	"RINCII"
*HW_VER_XGC_CPU	"10.1.3"
*HW_VER_XGC_CW	"5.5.6"
*HW_VER_XGC_HV	"5.5.6"
*HW_VER_XGC_RS1	"5.5.6"
*HW_VER_XGC_RS2	"N/A"
*HW_VER_XGC_RT	"N/A"
*HW_VER_XGC_TYPE	"RINCII"
*HW_XG_CURRENT_UNIT	"mA"
*HW_XG_FOCUS	"0.4mm x 12mm"
*HW_XG_FOCUS_TYPE	"LongFineToshiba"
*HW_XG_TARGET_ATOMIC_NUMBER	"29"
*HW_XG_TARGET_NAME	"Cu"
*HW_XG_TYPE	"Hermetic"
*HW_XG_VOLTAGE_UNIT	"kV"
*HW_XG_WAVE_LENGTH_ALPHA1	"1.540593"
*HW_XG_WAVE_LENGTH_ALPHA2	"1.544414"
*HW_XG_WAVE_LENGTH_BETA	"1.392246"
*HW_XG_WAVE_LENGTH_UNIT	"Angstrom"
*MEAS_COND_AXIS_NAME_INTERNAL-0	"TwoThetaTheta"
*MEAS_COND_AXIS_NAME_INTERNAL-1	"IncidentSollerSlit"
*MEAS_COND_AXIS_NAME_INTERNAL-10	"ReceivingSlitBox1"
*MEAS_COND_AXIS_NAME_INTERNAL-11	"ReceivingSlitBox1"
*MEAS_COND_AXIS_NAME_INTERNAL-12	"Filter"
*MEAS_COND_AXIS_NAME_INTERNAL-13	"ReceivingSollerSlit"
*MEAS_COND_AXIS_NAME_INTERNAL-14	"ReceivingSlitBox2"
*MEAS_COND_AXIS_NAME_INTERNAL-15	"ReceivingSlitBox2"
*MEAS_COND_AXIS_NAME_INTERNAL-16	"ReceivingSlitBox2"
*MEAS_COND_AXIS_NAME_INTERNAL-17	"PHA"
*MEAS_COND_AXIS_NAME_INTERNAL-18	"RS3"
*MEAS_COND_AXIS_NAME_INTERNAL-19	"Target_TargetTime"
*MEAS_COND_AXIS_NAME_INTERNAL-2	"IncidentSlitBox"
*MEAS_COND_AXIS_NAME_INTERNAL-20	"Target_XrayOnTime"
*MEAS_COND_AXIS_NAME_INTERNAL-21	"Target_IG"
*MEAS_COND_AXIS_NAME_INTERNAL-22	"Target_GP"
*MEAS_COND_AXIS_NAME_INTERNAL-23	"Target_FC"
*MEAS_COND_AXIS_NAME_INTERNAL-24	"HVPS_Bias"
*MEAS_COND_AXIS_NAME_INTERNAL-25	"HVPS_HVPSTime"
*MEAS_COND_AXIS_NAME_INTERNAL-26	"HVPS_Type1Time"
*MEAS_COND_AXIS_NAME_INTERNAL-27	"HVPS_Type2Time"
*MEAS_COND_AXIS_NAME_INTERNAL-28	"HVPS_Type3Time"
*MEAS_COND_AXIS_NAME_INTERNAL-29	"CW_IERTime"
*MEAS_COND_AXIS_NAME_INTERNAL-3	"IncidentSlitBox"
*MEAS_COND_AXIS_NAME_INTERNAL-30	"CW_WaterHose"
*MEAS_COND_AXIS_NAME_INTERNAL-31	"CW_CoolingWater"
*MEAS_COND_AXIS_NAME_INTERNAL-32	"CW_ECTime"
*MEAS_COND_AXIS_NAME_INTERNAL-33	"CW_Flow1"
*MEAS_COND_AXIS_NAME_INTERNAL-34	"CW_Temperature1"
*MEAS_COND_AXIS_NAME_INTERNAL-35	"CW_Pressure1"
*MEAS_COND_AXIS_NAME_INTERNAL-36	"CW_PressureIn"
*MEAS_COND_AXIS_NAME_INTERNAL-37	"CW_PressureOut"
*MEAS_COND_AXIS_NAME_INTERNAL-38	"CW_Flow2"
*MEAS_COND_AXIS_NAME_INTERNAL-39	"CW_Temperature2"
*MEAS_COND_AXIS_NAME_INTERNAL-4	"IncidentSlitBox"
*MEAS_COND_AXIS_NAME_INTERNAL-40	"CW_Pressure2"
*MEAS_COND_AXIS_NAME_INTERNAL-41	"RE_EnclosureTemp"
*MEAS_COND_AXIS_NAME_INTERNAL-42	"RE_EnclosureHummidity"
*MEAS_COND_AXIS_NAME_INTERNAL-43	"RE_CabinetTemp"
*MEAS_COND_AXIS_NAME_INTERNAL-44	"RE_RPTemp"
*MEAS_COND_AXIS_NAME_INTERNAL-45	"RE_ShutterAXrayOnTime"
*MEAS_COND_AXIS_NAME_INTERNAL-46	"RE_ShutterATimes"
*MEAS_COND_AXIS_NAME_INTERNAL-47	"RE_ShutterAOpenCloseTime"
*MEAS_COND_AXIS_NAME_INTERNAL-48	"RE_ShutterACloseOpenTime"
*MEAS_COND_AXIS_NAME_INTERNAL-49	"RE_ShutterBXrayOnTime"
*MEAS_COND_AXIS_NAME_INTERNAL-5	"IncidentAxdSlit"
*MEAS_COND_AXIS_NAME_INTERNAL-50	"RE_ShutterBTimes"
*MEAS_COND_AXIS_NAME_INTERNAL-51	"RE_ShutterBOpenCloseTime"
*MEAS_COND_AXIS_NAME_INTERNAL-52	"RE_ShutterBCloseOpenTime"
*MEAS_COND_AXIS_NAME_INTERNAL-53	"RE_XrayWarningRamp"
*MEAS_COND_AXIS_NAME_INTERNAL-54	"RE_ShutterAInstallation"
*MEAS_COND_AXIS_NAME_INTERNAL-55	"RE_ShutterARamp"
*MEAS_COND_AXIS_NAME_INTERNAL-56	"RE_ShutterBInstallation"
*MEAS_COND_AXIS_NAME_INTERNAL-57	"RE_ShutterBRamp"
*MEAS_COND_AXIS_NAME_INTERNAL-58	"RE_ExtShutterCLS"
*MEAS_COND_AXIS_NAME_INTERNAL-59	"RE_ExtXrayOFF"
*MEAS_COND_AXIS_NAME_INTERNAL-6	"IncidentAxdSlit"
*MEAS_COND_AXIS_NAME_INTERNAL-60	"RE_ExtSafetyCircuit"
*MEAS_COND_AXIS_NAME_INTERNAL-61	"Version_CPU"
*MEAS_COND_AXIS_NAME_INTERNAL-62	"Version_RS1"
*MEAS_COND_AXIS_NAME_INTERNAL-63	"Version_RS2"
*MEAS_COND_AXIS_NAME_INTERNAL-64	"Version_HV"
*MEAS_COND_AXIS_NAME_INTERNAL-65	"Version_CW"
*MEAS_COND_AXIS_NAME_INTERNAL-66	"Version_RT"
*MEAS_COND_AXIS_NAME_INTERNAL-67	"IncidentPrimary"
*MEAS_COND_AXIS_NAME_INTERNAL-68	"IncidentMonochromator"
*MEAS_COND_AXIS_NAME_INTERNAL-69	"ReceivingOptics"
*MEAS_COND_AXIS_NAME_INTERNAL-7	"IncidentAxdSlit"
*MEAS_COND_AXIS_NAME_INTERNAL-70	"CounterMonochromatorKind"
*MEAS_COND_AXIS_NAME_INTERNAL-8	"Filter"
*MEAS_COND_AXIS_NAME_INTERNAL-9	"ReceivingSlitBox1"
*MEAS_COND_AXIS_NAME-0	"TwoThetaTheta"
*MEAS_COND_AXIS_NAME-1	"IncidentSollerSlit"
*MEAS_COND_AXIS_NAME-10	"ReceivingSlitBox1-_Axis"
*MEAS_COND_AXIS_NAME-11	"SlitSS"
*MEAS_COND_AXIS_NAME-12	"Filter"
*MEAS_COND_AXIS_NAME-13	"ReceivingSollerSlit"
*MEAS_COND_AXIS_NAME-14	"ReceivingSlitBox2"
*MEAS_COND_AXIS_NAME-15	"ReceivingSlitBox2-_Axis"
*MEAS_COND_AXIS_NAME-16	"SlitRS"
*MEAS_COND_AXIS_NAME-17	"PHA"
*MEAS_COND_AXIS_NAME-18	"RS3"
*MEAS_COND_AXIS_NAME-19	"Target_TargetTime"
*MEAS_COND_AXIS_NAME-2	"IncidentSlitBox"
*MEAS_COND_AXIS_NAME-20	"Target_XrayOnTime"
*MEAS_COND_AXIS_NAME-21	"Target_IG"
*MEAS_COND_AXIS_NAME-22	"Target_GP"
*MEAS_COND_AXIS_NAME-23	"Target_FC"
*MEAS_COND_AXIS_NAME-24	"HVPS_Bias"
*MEAS_COND_AXIS_NAME-25	"HVPS_HVPSTime"
*MEAS_COND_AXIS_NAME-26	"HVPS_Type1Time"
*MEAS_COND_AXIS_NAME-27	"HVPS_Type2Time"
*MEAS_COND_AXIS_NAME-28	"HVPS_Type3Time"
*MEAS_COND_AXIS_NAME-29	"CW_IERTime"
*MEAS_COND_AXIS_NAME-3	"IncidentSlitBox-_Axis"
*MEAS_COND_AXIS_NAME-30	"CW_WaterHose"
*MEAS_COND_AXIS_NAME-31	"CW_CoolingWater"
*MEAS_COND_AXIS_NAME-32	"CW_ECTime"
*MEAS_COND_AXIS_NAME-33	"CW_Flow1"
*MEAS_COND_AXIS_NAME-34	"CW_Temperature1"
*MEAS_COND_AXIS_NAME-35	"CW_Pressure1"
*MEAS_COND_AXIS_NAME-36	"CW_PressureIn"
*MEAS_COND_AXIS_NAME-37	"CW_PressureOut"
*MEAS_COND_AXIS_NAME-38	"CW_Flow2"
*MEAS_COND_AXIS_NAME-39	"CW_Temperature2"
*MEAS_COND_AXIS_NAME-4	"SlitDS"
*MEAS_COND_AXIS_NAME-40	"CW_Pressure2"
*MEAS_COND_AXIS_NAME-41	"RE_EnclosureTemp"
*MEAS_COND_AXIS_NAME-42	"RE_EnclosureHummidity"
*MEAS_COND_AXIS_NAME-43	"RE_CabinetTemp"
*MEAS_COND_AXIS_NAME-44	"RE_RPTemp"
*MEAS_COND_AXIS_NAME-45	"RE_ShutterAXrayOnTime"
*MEAS_COND_AXIS_NAME-46	"RE_ShutterATimes"
*MEAS_COND_AXIS_NAME-47	"RE_ShutterAOpenCloseTime"
*MEAS_COND_AXIS_NAME-48	"RE_ShutterACloseOpenTime"
*MEAS_COND_AXIS_NAME-49	"RE_ShutterBXrayOnTime"
*MEAS_COND_AXIS_NAME-5	"IncidentAxdSlit"
*MEAS_COND_AXIS_NAME-50	"RE_ShutterBTimes"
*MEAS_COND_AXIS_NAME-51	"RE_ShutterBOpenCloseTime"
*MEAS_COND_AXIS_NAME-52	"RE_ShutterBCloseOpenTime"
*MEAS_COND_AXIS_NAME-53	"RE_XrayWarningRamp"
*MEAS_COND_AXIS_NAME-54	"RE_ShutterAInstallation"
*MEAS_COND_AXIS_NAME-55	"RE_ShutterARamp"
*MEAS_COND_AXIS_NAME-56	"RE_ShutterBInstallation"
*MEAS_COND_AXIS_NAME-57	"RE_ShutterBRamp"
*MEAS_COND_AXIS_NAME-58	"RE_ExtShutterCLS"
*MEAS_COND_AXIS_NAME-59	"RE_ExtXrayOFF"
*MEAS_COND_AXIS_NAME-6	"LLS"
*MEAS_COND_AXIS_NAME-60	"RE_ExtSafetyCircuit"
*MEAS_COND_AXIS_NAME-61	"Version_CPU"
*MEAS_COND_AXIS_NAME-62	"Version_RS1"
*MEAS_COND_AXIS_NAME-63	"Version_RS2"
*MEAS_COND_AXIS_NAME-64	"Version_HV"
*MEAS_COND_AXIS_NAME-65	"Version_CW"
*MEAS_COND_AXIS_NAME-66	"Version_RT"
*MEAS_COND_AXIS_NAME-67	"IncidentPrimary"
*MEAS_COND_AXIS_NAME-68	"IncidentMonochromator"
*MEAS_COND_AXIS_NAME-69	"ReceivingOptics"
*MEAS_COND_AXIS_NAME-7	"DHLSlit"
*MEAS_COND_AXIS_NAME-70	"CounterMonochromatorKind"
*MEAS_COND_AXIS_NAME-8	"Filter"
*MEAS_COND_AXIS_NAME-9	"ReceivingSlitBox1"
*MEAS_COND_AXIS_OFFSET-0	"0"
*MEAS_COND_AXIS_OFFSET-1	"0"
*MEAS_COND_AXIS_OFFSET-10	"0"
*MEAS_COND_AXIS_OFFSET-11	"0"
*MEAS_COND_AXIS_OFFSET-12	"0"
*MEAS_COND_AXIS_OFFSET-13	"0"
*MEAS_COND_AXIS_OFFSET-14	"0"
*MEAS_COND_AXIS_OFFSET-15	"0"
*MEAS_COND_AXIS_OFFSET-16	"0"
*MEAS_COND_AXIS_OFFSET-17	"0"
*MEAS_COND_AXIS_OFFSET-18	"0"
*MEAS_COND_AXIS_OFFSET-19	"0"
*MEAS_COND_AXIS_OFFSET-2	"0"
*MEAS_COND_AXIS_OFFSET-20	"0"
*MEAS_COND_AXIS_OFFSET-21	"0"
*MEAS_COND_AXIS_OFFSET-22	"0"
*MEAS_COND_AXIS_OFFSET-23	"0"
*MEAS_COND_AXIS_OFFSET-24	"0"
*MEAS_COND_AXIS_OFFSET-25	"0"
*MEAS_COND_AXIS_OFFSET-26	"0"
*MEAS_COND_AXIS_OFFSET-27	"0"
*MEAS_COND_AXIS_OFFSET-28	"0"
*MEAS_COND_AXIS_OFFSET-29	"0"
*MEAS_COND_AXIS_OFFSET-3	"0"
*MEAS_COND_AXIS_OFFSET-30	"0"
*MEAS_COND_AXIS_OFFSET-31	"0"
*MEAS_COND_AXIS_OFFSET-32	"0"
*MEAS_COND_AXIS_OFFSET-33	"0"
*MEAS_COND_AXIS_OFFSET-34	"0"
*MEAS_COND_AXIS_OFFSET-35	"0"
*MEAS_COND_AXIS_OFFSET-36	"0"
*MEAS_COND_AXIS_OFFSET-37	"0"
*MEAS_COND_AXIS_OFFSET-38	"0"
*MEAS_COND_AXIS_OFFSET-39	"0"
*MEAS_COND_AXIS_OFFSET-4	"0"
*MEAS_COND_AXIS_OFFSET-40	"0"
*MEAS_COND_AXIS_OFFSET-41	"0"
*MEAS_COND_AXIS_OFFSET-42	"0"
*MEAS_COND_AXIS_OFFSET-43	"0"
*MEAS_COND_AXIS_OFFSET-44	"0"
*MEAS_COND_AXIS_OFFSET-45	"0"
*MEAS_COND_AXIS_OFFSET-46	"0"
*MEAS_COND_AXIS_OFFSET-47	"0"
*MEAS_COND_AXIS_OFFSET-48	"0"
*MEAS_COND_AXIS_OFFSET-49	"0"
*MEAS_COND_AXIS_OFFSET-5	"0"
*MEAS_COND_AXIS_OFFSET-50	"0"
*MEAS_COND_AXIS_OFFSET-51	"0"
*MEAS_COND_AXIS_OFFSET-52	"0"
*MEAS_COND_AXIS_OFFSET-53	"0"
*MEAS_COND_AXIS_OFFSET-54	"0"
*MEAS_COND_AXIS_OFFSET-55	"0"
*MEAS_COND_AXIS_OFFSET-56	"0"
*MEAS_COND_AXIS_OFFSET-57	"0"
*MEAS_COND_AXIS_OFFSET-58	"0"
*MEAS_COND_AXIS_OFFSET-59	"0"
*MEAS_COND_AXIS_OFFSET-6	"0"
*MEAS_COND_AXIS_OFFSET-60	"0"
*MEAS_COND_AXIS_OFFSET-61	"0"
*MEAS_COND_AXIS_OFFSET-62	"0"
*MEAS_COND_AXIS_OFFSET-63	"0"
*MEAS_COND_AXIS_OFFSET-64	"0"
*MEAS_COND_AXIS_OFFSET-65	"0"
*MEAS_COND_AXIS_OFFSET-66	"0"
*MEAS_COND_AXIS_OFFSET-67	"0"
*MEAS_COND_AXIS_OFFSET-68	"0"
*MEAS_COND_AXIS_OFFSET-69	"0"
*MEAS_COND_AXIS_OFFSET-7	"0"
*MEAS_COND_AXIS_OFFSET-70	"0"
*MEAS_COND_AXIS_OFFSET-8	"0"
*MEAS_COND_AXIS_OFFSET-9	"0"
*MEAS_COND_AXIS_POSITION-0	"12.0000"
*MEAS_COND_AXIS_POSITION-1	"Soller_slit_2.5deg"
*MEAS_COND_AXIS_POSITION-10	"8.0mm"
*MEAS_COND_AXIS_POSITION-11	"8.0mm"
*MEAS_COND_AXIS_POSITION-12	"K_beta_x1.5"
*MEAS_COND_AXIS_POSITION-13	"Soller_slit_2.5deg"
*MEAS_COND_AXIS_POSITION-14	"Open"
*MEAS_COND_AXIS_POSITION-15	"Open"
*MEAS_COND_AXIS_POSITION-16	"Open"
*MEAS_COND_AXIS_POSITION-17	"36"
*MEAS_COND_AXIS_POSITION-18	"Open"
*MEAS_COND_AXIS_POSITION-19	""
*MEAS_COND_AXIS_POSITION-2	"1.25deg"
*MEAS_COND_AXIS_POSITION-20	"18.966667"
*MEAS_COND_AXIS_POSITION-21	"0.000000"
*MEAS_COND_AXIS_POSITION-22	""
*MEAS_COND_AXIS_POSITION-23	"0.000000"
*MEAS_COND_AXIS_POSITION-24	"0.000000"
*MEAS_COND_AXIS_POSITION-25	""
*MEAS_COND_AXIS_POSITION-26	""
*MEAS_COND_AXIS_POSITION-27	""
*MEAS_COND_AXIS_POSITION-28	""
*MEAS_COND_AXIS_POSITION-29	"0.000000"
*MEAS_COND_AXIS_POSITION-3	"1.25deg"
*MEAS_COND_AXIS_POSITION-30	""
*MEAS_COND_AXIS_POSITION-31	""
*MEAS_COND_AXIS_POSITION-32	""
*MEAS_COND_AXIS_POSITION-33	"4.350000"
*MEAS_COND_AXIS_POSITION-34	"0.000000"
*MEAS_COND_AXIS_POSITION-35	"0.000000"
*MEAS_COND_AXIS_POSITION-36	""
*MEAS_COND_AXIS_POSITION-37	""
*MEAS_COND_AXIS_POSITION-38	"0.000000"
*MEAS_COND_AXIS_POSITION-39	"0.000000"
*MEAS_COND_AXIS_POSITION-4	"1.25deg"
*MEAS_COND_AXIS_POSITION-40	"0.000000"
*MEAS_COND_AXIS_POSITION-41	"0.000000"
*MEAS_COND_AXIS_POSITION-42	""
*MEAS_COND_AXIS_POSITION-43	"38.000000"
*MEAS_COND_AXIS_POSITION-44	""
*MEAS_COND_AXIS_POSITION-45	""
*MEAS_COND_AXIS_POSITION-46	""
*MEAS_COND_AXIS_POSITION-47	""
*MEAS_COND_AXIS_POSITION-48	""
*MEAS_COND_AXIS_POSITION-49	""
*MEAS_COND_AXIS_POSITION-5	"10mm"
*MEAS_COND_AXIS_POSITION-50	"74.000000"
*MEAS_COND_AXIS_POSITION-51	"32.000000"
*MEAS_COND_AXIS_POSITION-52	"23.000000"
*MEAS_COND_AXIS_POSITION-53	""
*MEAS_COND_AXIS_POSITION-54	"OFF"
*MEAS_COND_AXIS_POSITION-55	""
*MEAS_COND_AXIS_POSITION-56	"ON"
*MEAS_COND_AXIS_POSITION-57	""
*MEAS_COND_AXIS_POSITION-58	""
*MEAS_COND_AXIS_POSITION-59	""
*MEAS_COND_AXIS_POSITION-6	"10mm"
*MEAS_COND_AXIS_POSITION-60	"CLOSE"
*MEAS_COND_AXIS_POSITION-61	"10.1.3"
*MEAS_COND_AXIS_POSITION-62	"5.5.6"
*MEAS_COND_AXIS_POSITION-63	"N/A"
*MEAS_COND_AXIS_POSITION-64	"5.5.6"
*MEAS_COND_AXIS_POSITION-65	"5.5.6"
*MEAS_COND_AXIS_POSITION-66	"N/A"
*MEAS_COND_AXIS_POSITION-67	"No_unit"
*MEAS_COND_AXIS_POSITION-68	"Manual"
*MEAS_COND_AXIS_POSITION-69	"No_unit"
*MEAS_COND_AXIS_POSITION-7	"10mm"
*MEAS_COND_AXIS_POSITION-70	"None"
*MEAS_COND_AXIS_POSITION-8	"None"
*MEAS_COND_AXIS_POSITION-9	"8.0mm"
*MEAS_COND_AXIS_RESOLUTION-0	"0.0025"
*MEAS_COND_AXIS_RESOLUTION-1	""
*MEAS_COND_AXIS_RESOLUTION-10	""
*MEAS_COND_AXIS_RESOLUTION-11	""
*MEAS_COND_AXIS_RESOLUTION-12	""
*MEAS_COND_AXIS_RESOLUTION-13	""
*MEAS_COND_AXIS_RESOLUTION-14	""
*MEAS_COND_AXIS_RESOLUTION-15	""
*MEAS_COND_AXIS_RESOLUTION-16	""
*MEAS_COND_AXIS_RESOLUTION-17	"1"
*MEAS_COND_AXIS_RESOLUTION-18	"0.1"
*MEAS_COND_AXIS_RESOLUTION-19	"0.01"
*MEAS_COND_AXIS_RESOLUTION-2	""
*MEAS_COND_AXIS_RESOLUTION-20	"0.010000"
*MEAS_COND_AXIS_RESOLUTION-21	"1"
*MEAS_COND_AXIS_RESOLUTION-22	"1"
*MEAS_COND_AXIS_RESOLUTION-23	"0.01"
*MEAS_COND_AXIS_RESOLUTION-24	"1"
*MEAS_COND_AXIS_RESOLUTION-25	"0.01"
*MEAS_COND_AXIS_RESOLUTION-26	"0.01"
*MEAS_COND_AXIS_RESOLUTION-27	"0.01"
*MEAS_COND_AXIS_RESOLUTION-28	"0.01"
*MEAS_COND_AXIS_RESOLUTION-29	"0.010000"
*MEAS_COND_AXIS_RESOLUTION-3	""
*MEAS_COND_AXIS_RESOLUTION-30	"0.01"
*MEAS_COND_AXIS_RESOLUTION-31	"0.01"
*MEAS_COND_AXIS_RESOLUTION-32	"1"
*MEAS_COND_AXIS_RESOLUTION-33	"0.100000"
*MEAS_COND_AXIS_RESOLUTION-34	"1.000000"
*MEAS_COND_AXIS_RESOLUTION-35	"0.010000"
*MEAS_COND_AXIS_RESOLUTION-36	"0.01"
*MEAS_COND_AXIS_RESOLUTION-37	"0.01"
*MEAS_COND_AXIS_RESOLUTION-38	"0.1"
*MEAS_COND_AXIS_RESOLUTION-39	"1"
*MEAS_COND_AXIS_RESOLUTION-4	""
*MEAS_COND_AXIS_RESOLUTION-40	"0.01"
*MEAS_COND_AXIS_RESOLUTION-41	"1.000000"
*MEAS_COND_AXIS_RESOLUTION-42	"1"
*MEAS_COND_AXIS_RESOLUTION-43	"1.000000"
*MEAS_COND_AXIS_RESOLUTION-44	"1"
*MEAS_COND_AXIS_RESOLUTION-45	"0.01"
*MEAS_COND_AXIS_RESOLUTION-46	"1"
*MEAS_COND_AXIS_RESOLUTION-47	"1"
*MEAS_COND_AXIS_RESOLUTION-48	"1"
*MEAS_COND_AXIS_RESOLUTION-49	"0.01"
*MEAS_COND_AXIS_RESOLUTION-5	""
*MEAS_COND_AXIS_RESOLUTION-50	"1.000000"
*MEAS_COND_AXIS_RESOLUTION-51	"1.000000"
*MEAS_COND_AXIS_RESOLUTION-52	"1.000000"
*MEAS_COND_AXIS_RESOLUTION-53	"-"
*MEAS_COND_AXIS_RESOLUTION-54	"-"
*MEAS_COND_AXIS_RESOLUTION-55	"-"
*MEAS_COND_AXIS_RESOLUTION-56	"1.000000"
*MEAS_COND_AXIS_RESOLUTION-57	"-"
*MEAS_COND_AXIS_RESOLUTION-58	"-"
*MEAS_COND_AXIS_RESOLUTION-59	"-"
*MEAS_COND_AXIS_RESOLUTION-6	""
*MEAS_COND_AXIS_RESOLUTION-60	"1.000000"
*MEAS_COND_AXIS_RESOLUTION-61	"1.000000"
*MEAS_COND_AXIS_RESOLUTION-62	"1.000000"
*MEAS_COND_AXIS_RESOLUTION-63	"1.000000"
*MEAS_COND_AXIS_RESOLUTION-64	"1.000000"
*MEAS_COND_AXIS_RESOLUTION-65	"1.000000"
*MEAS_COND_AXIS_RESOLUTION-66	"1.000000"
*MEAS_COND_AXIS_RESOLUTION-7	""
*MEAS_COND_AXIS_RESOLUTION-8	""
*MEAS_COND_AXIS_RESOLUTION-9	""
*MEAS_COND_AXIS_STATE-0	"Scan"
*MEAS_COND_AXIS_STATE-1	"Fixed"
*MEAS_COND_AXIS_STATE-10	"Fixed"
*MEAS_COND_AXIS_STATE-11	"Fixed"
*MEAS_COND_AXIS_STATE-12	"Fixed"
*MEAS_COND_AXIS_STATE-13	"Fixed"
*MEAS_COND_AXIS_STATE-14	"Fixed"
*MEAS_COND_AXIS_STATE-15	"Fixed"
*MEAS_COND_AXIS_STATE-16	"Fixed"
*MEAS_COND_AXIS_STATE-17	"Fixed"
*MEAS_COND_AXIS_STATE-18	"Fixed"
*MEAS_COND_AXIS_STATE-19	"Fixed"
*MEAS_COND_AXIS_STATE-2	"Fixed"
*MEAS_COND_AXIS_STATE-20	"Fixed"
*MEAS_COND_AXIS_STATE-21	"Fixed"
*MEAS_COND_AXIS_STATE-22	"Fixed"
*MEAS_COND_AXIS_STATE-23	"Fixed"
*MEAS_COND_AXIS_STATE-24	"Fixed"
*MEAS_COND_AXIS_STATE-25	"Fixed"
*MEAS_COND_AXIS_STATE-26	"Fixed"
*MEAS_COND_AXIS_STATE-27	"Fixed"
*MEAS_COND_AXIS_STATE-28	"Fixed"
*MEAS_COND_AXIS_STATE-29	"Fixed"
*MEAS_COND_AXIS_STATE-3	"Fixed"
*MEAS_COND_AXIS_STATE-30	"Fixed"
*MEAS_COND_AXIS_STATE-31	"Fixed"
*MEAS_COND_AXIS_STATE-32	"Fixed"
*MEAS_COND_AXIS_STATE-33	"Fixed"
*MEAS_COND_AXIS_STATE-34	"Fixed"
*MEAS_COND_AXIS_STATE-35	"Fixed"
*MEAS_COND_AXIS_STATE-36	"Fixed"
*MEAS_COND_AXIS_STATE-37	"Fixed"
*MEAS_COND_AXIS_STATE-38	"Fixed"
*MEAS_COND_AXIS_STATE-39	"Fixed"
*MEAS_COND_AXIS_STATE-4	"Fixed"
*MEAS_COND_AXIS_STATE-40	"Fixed"
*MEAS_COND_AXIS_STATE-41	"Fixed"
*MEAS_COND_AXIS_STATE-42	"Fixed"
*MEAS_COND_AXIS_STATE-43	"Fixed"
*MEAS_COND_AXIS_STATE-44	"Fixed"
*MEAS_COND_AXIS_STATE-45	"Fixed"
*MEAS_COND_AXIS_STATE-46	"Fixed"
*MEAS_COND_AXIS_STATE-47	"Fixed"
*MEAS_COND_AXIS_STATE-48	"Fixed"
*MEAS_COND_AXIS_STATE-49	"Fixed"
*MEAS_COND_AXIS_STATE-5	"Fixed"
*MEAS_COND_AXIS_STATE-50	"Fixed"
*MEAS_COND_AXIS_STATE-51	"Fixed"
*MEAS_COND_AXIS_STATE-52	"Fixed"
*MEAS_COND_AXIS_STATE-53	"Fixed"
*MEAS_COND_AXIS_STATE-54	"Fixed"
*MEAS_COND_AXIS_STATE-55	"Fixed"
*MEAS_COND_AXIS_STATE-56	"Fixed"
*MEAS_COND_AXIS_STATE-57	"Fixed"
*MEAS_COND_AXIS_STATE-58	"Fixed"
*MEAS_COND_AXIS_STATE-59	"Fixed"
*MEAS_COND_AXIS_STATE-6	"Fixed"
*MEAS_COND_AXIS_STATE-60	"Fixed"
*MEAS_COND_AXIS_STATE-61	"Fixed"
*MEAS_COND_AXIS_STATE-62	"Fixed"
*MEAS_COND_AXIS_STATE-63	"Fixed"
*MEAS_COND_AXIS_STATE-64	"Fixed"
*MEAS_COND_AXIS_STATE-65	"Fixed"
*MEAS_COND_AXIS_STATE-66	"Fixed"
*MEAS_COND_AXIS_STATE-7	"Fixed"
*MEAS_COND_AXIS_STATE-8	"Fixed"
*MEAS_COND_AXIS_STATE-9	"Fixed"
*MEAS_COND_AXIS_UNIT-0	"deg"
*MEAS_COND_AXIS_UNIT-1	""
*MEAS_COND_AXIS_UNIT-10	""
*MEAS_COND_AXIS_UNIT-11	""
*MEAS_COND_AXIS_UNIT-12	""
*MEAS_COND_AXIS_UNIT-13	""
*MEAS_COND_AXIS_UNIT-14	""
*MEAS_COND_AXIS_UNIT-15	""
*MEAS_COND_AXIS_UNIT-16	""
*MEAS_COND_AXIS_UNIT-17	"div"
*MEAS_COND_AXIS_UNIT-18	""
*MEAS_COND_AXIS_UNIT-19	"H"
*MEAS_COND_AXIS_UNIT-2	""
*MEAS_COND_AXIS_UNIT-20	"H"
*MEAS_COND_AXIS_UNIT-21	"mV"
*MEAS_COND_AXIS_UNIT-22	"V"
*MEAS_COND_AXIS_UNIT-23	"V"
*MEAS_COND_AXIS_UNIT-24	"V"
*MEAS_COND_AXIS_UNIT-25	"H"
*MEAS_COND_AXIS_UNIT-26	"H"
*MEAS_COND_AXIS_UNIT-27	"H"
*MEAS_COND_AXIS_UNIT-28	"H"
*MEAS_COND_AXIS_UNIT-29	"H"
*MEAS_COND_AXIS_UNIT-3	""
*MEAS_COND_AXIS_UNIT-30	"H"
*MEAS_COND_AXIS_UNIT-31	"H"
*MEAS_COND_AXIS_UNIT-32	"uS/m"
*MEAS_COND_AXIS_UNIT-33	"L/min"
*MEAS_COND_AXIS_UNIT-34	"degree"
*MEAS_COND_AXIS_UNIT-35	"MPa"
*MEAS_COND_AXIS_UNIT-36	"MPa"
*MEAS_COND_AXIS_UNIT-37	"MPa"
*MEAS_COND_AXIS_UNIT-38	"L/min"
*MEAS_COND_AXIS_UNIT-39	"C"
*MEAS_COND_AXIS_UNIT-4	""
*MEAS_COND_AXIS_UNIT-40	"MPa"
*MEAS_COND_AXIS_UNIT-41	"degree"
*MEAS_COND_AXIS_UNIT-42	"percent"
*MEAS_COND_AXIS_UNIT-43	"degree"
*MEAS_COND_AXIS_UNIT-44	"C"
*MEAS_COND_AXIS_UNIT-45	"H"
*MEAS_COND_AXIS_UNIT-46	"time"
*MEAS_COND_AXIS_UNIT-47	"msec"
*MEAS_COND_AXIS_UNIT-48	"msec"
*MEAS_COND_AXIS_UNIT-49	"H"
*MEAS_COND_AXIS_UNIT-5	""
*MEAS_COND_AXIS_UNIT-50	"times"
*MEAS_COND_AXIS_UNIT-51	"msec"
*MEAS_COND_AXIS_UNIT-52	"msec"
*MEAS_COND_AXIS_UNIT-53	"-"
*MEAS_COND_AXIS_UNIT-54	"-"
