ｻﾝﾌﾟﾙ:	Au190-1100_600_1_05_R
ﾌｧｲﾙ名:	Au190-1100_600_1_05_R.UDS
分析日時:	'14:08:09, 09/20/2024
ｵﾍﾟﾚｰﾀ:	OB
ｺﾒﾝﾄ:	'

光度計
ﾓﾃﾞﾙ:	U-3900形分光光度計
ｼﾘｱﾙ No.:	'3004-010
ROM Ver.:	2J25300 07

装置条件
測定ﾓｰﾄﾞ:	波長ｽｷｬﾝ
ﾃﾞｰﾀﾓｰﾄﾞ:	%T
開始波長:	1100.00 nm
終了波長:	190.00 nm
ｽｷｬﾝｽﾋﾟｰﾄﾞ:	600 nm/min
ｻﾝﾌﾟﾘﾝｸﾞ間隔:	0.50 nm
初期待ち時間:	0 s
繰り返し周期:	0.0 min
測定回数:	1
測定前ｵｰﾄｾﾞﾛ:	Off
ｽﾘｯﾄ:	1 nm
ﾎﾄﾏﾙ電圧:	自動制御
光源切換ﾓｰﾄﾞ:	自動切換
光源切換波長:	340.00 nm
ﾍﾞｰｽﾗｲﾝ設定:	ﾕｰｻﾞ 1
高分解能測定:	Off
D2ﾗﾝﾌﾟ:	On
WIﾗﾝﾌﾟ:	On
R/S反転:	Off
ｾﾙ長:	10.0 mm

ﾋﾟｰｸ検出
検出方法:	Rectangular
感度:	1
しきい値:	0.0100

ﾋﾟｰｸ
ﾋﾟｰｸ No.	開始 (nm)	ﾋﾟｰｸ (nm)	終了 (nm)	高さ (%T)	ﾊﾞﾚｰ (nm)	ﾊﾞﾚｰ (%T)
1	1093.00	1090.50	1081.50	35.219	1081.50	278.674
2	1081.50	1078.50	1071.50	48.540	1071.50	104.038
3	1071.50	1068.50	1066.00	76.381	1066.00	96.754
4	1066.00	1058.50	1055.00	77.374	1055.00	88.935
5	1055.00	1054.00	1052.50	82.769	1052.50	89.590
6	1052.50	1047.00	1046.00	78.893	1046.00	82.550
7	1046.00	1044.00	1041.50	78.218	1041.50	86.968
8	1041.50	1036.00	1033.50	76.635	1033.50	79.728
9	1033.50	1032.00	1025.00	77.296	1025.00	89.987
10	1025.00	1019.00	1016.00	81.730	1016.00	83.896
11	1016.00	1012.50	1008.50	80.346	1008.50	83.767
12	1008.50	1004.00	1001.50	81.855	1001.50	82.859
13	1001.50	1000.50	997.00	81.954	997.00	84.168
14	997.00	991.50	989.00	81.921	989.00	84.064
15	989.00	986.50	984.00	82.905	984.00	83.601
16	984.00	978.50	976.00	82.392	976.00	83.322
17	976.00	974.50	970.50	82.706	970.50	83.553
18	970.50	965.00	960.00	82.503	960.00	84.044
19	960.00	957.50	954.00	82.809	954.00	84.255
20	954.00	950.00	948.00	83.451	948.00	84.389
21	948.00	945.00	940.00	83.048	940.00	84.753
22	940.00	935.00	930.00	83.810	930.00	84.727
23	930.00	928.00	923.00	83.942	923.00	85.493
24	923.00	915.50	912.00	83.955	912.00	85.465
25	912.00	908.50	906.00	84.496	906.00	86.110
26	906.00	904.00	900.00	84.172	900.00	85.097
27	900.00	897.00	891.50	84.664	891.50	86.377
28	891.50	889.00	884.50	85.364	884.50	87.550
29	884.50	881.50	877.50	85.763	877.50	87.317
30	877.50	875.00	872.50	85.826	872.50	87.083
31	872.50	868.00	861.50	86.155	861.50	88.399
32	861.50	858.50	849.00	86.603	849.00	88.219
33	849.00	846.50	841.00	87.192	841.00	88.332
34	841.00	839.00	832.00	87.456	832.00	89.244
35	832.00	830.50	827.50	88.398	827.50	89.395
36	827.50	825.50	815.00	88.603	815.00	90.514
37	815.00	812.50	809.50	89.625	809.50	90.315
38	809.50	808.50	803.50	89.663	803.50	90.736
39	803.50	798.00	791.00	89.512	791.00	90.944
40	791.00	787.50	784.00	89.587	784.00	90.707
41	784.00	783.00	779.00	90.478	779.00	91.336
42	779.00	776.50	774.00	90.725	774.00	91.007
43	774.00	770.50	768.50	90.600	768.50	90.988
44	768.50	766.50	758.00	90.521	758.00	91.282
45	758.00	755.00	745.00	90.706	745.00	92.595
46	745.00	737.00	733.50	91.257	733.50	91.395
47	733.50	731.50	730.00	91.171	730.00	91.527
48	730.00	727.50	726.00	91.114	726.00	91.338
49	726.00	722.00	720.00	91.044	720.00	91.214
50	720.00	717.50	713.00	90.963	713.00	91.206
51	713.00	708.50	706.50	90.905	706.50	91.159
52	706.50	703.00	700.00	90.631	700.00	91.020
53	700.00	694.00	691.50	90.639	691.50	90.800
54	691.50	681.50	679.50	90.132	679.50	90.282
55	679.50	677.50	674.00	90.032	674.00	90.161
56	674.00	672.00	670.00	89.946	670.00	90.101
57	670.00	663.50	660.50	89.544	660.50	89.626
58	660.50	471.00	468.50	32.217	468.50	32.304
59	468.50	466.00	450.00	32.206	450.00	32.671
60	450.00	446.00	443.00	32.561	443.00	32.823
61	443.00	441.00	438.50	32.758	438.50	32.852
62	438.50	437.50	431.50	32.809	431.50	32.974
63	431.50	428.00	417.00	32.890	417.00	32.993
64	417.00	411.50	409.00	32.769	409.00	32.925
65	409.00	397.50	394.00	32.510	394.00	32.560
66	394.00	352.00	300.50	29.994	300.50	34.614
67	300.50	299.00	279.00	34.530	279.00	35.107
68	279.00	230.50	229.00	30.249	229.00	30.305

ﾃﾞｰﾀﾘｽﾄ
nm	%T
1100.00	104.911
1099.50	136.628
1099.00	180.977
1098.50	232.533
1098.00	238.853
1097.50	186.853
1097.00	180.982
1096.50	138.458
1096.00	121.664
1095.50	149.901
1095.00	196.230
1094.50	251.576
1094.00	282.352
1093.50	281.289
1093.00	286.218
1092.50	231.133
1092.00	181.928
1091.50	126.017
1091.00	83.839
1090.50	35.219
1090.00	58.610
1089.50	72.041
1089.00	90.740
1088.50	61.186
1088.00	67.319
1087.50	81.629
1087.00	97.840
1086.50	94.342
1086.00	111.679
1085.50	134.411
1085.00	197.724
1084.50	95.221
1084.00	79.310
1083.50	98.925
1083.00	114.206
1082.50	170.055
1082.00	257.190
1081.50	278.674
1081.00	272.716
1080.50	251.402
1080.00	195.836
1079.50	120.878
1079.00	65.652
1078.50	48.540
1078.00	111.745
1077.50	63.000
1077.00	68.375
1076.50	81.781
1076.00	73.980
1075.50	70.721
1075.00	82.130
1074.50	79.681
1074.00	74.613
1073.50	85.102
1073.00	88.410
1072.50	85.770
1072.00	98.960
1071.50	104.038
1071.00	103.965
1070.50	102.973
1070.00	93.216
1069.50	88.643
1069.00	84.333
1068.50	76.381
1068.00	79.567
1067.50	77.195
1067.00	78.930
1066.50	93.472
1066.00	96.754
1065.50	86.875
1065.00	89.544
1064.50	92.602
1064.00	90.886
1063.50	87.132
1063.00	81.269
1062.50	80.313
1062.00	86.813
1061.50	84.487
1061.00	83.349
1060.50	80.839
1060.00	78.597
1059.50	82.065
1059.00	81.352
1058.50	77.374
1058.00	79.512
1057.50	83.840
1057.00	87.379
1056.50	87.273
1056.00	88.298
1055.50	87.940
1055.00	88.935
1054.50	87.102
1054.00	82.769
1053.50	85.099
1053.00	87.698
1052.50	89.590
1052.00	87.327
1051.50	84.756
1051.00	85.136
1050.50	88.728
1050.00	88.623
1049.50	84.372
1049.00	81.806
1048.50	79.344
1048.00	80.796
1047.50	81.222
1047.00	78.893
1046.50	81.594
1046.00	82.550
1045.50	82.223
1045.00	81.348
1044.50	78.589
1044.00	78.218
1043.50	80.874
1043.00	83.206
1042.50	84.427
1042.00	86.784
1041.50	86.968
1041.00	84.237
1040.50	82.387
1040.00	79.950
1039.50	80.805
1039.00	81.467
1038.50	82.098
1038.00	82.424
1037.50	80.744
1037.00	78.428
1036.50	77.180
1036.00	76.635
1035.50	76.947
1035.00	77.685
1034.50	79.226
1034.00	79.437
1033.50	79.728
1033.00	78.718
1032.50	78.217
1032.00	77.296
1031.50	77.486
1031.00	78.566
1030.50	80.365
1030.00	81.487
1029.50	82.976
1029.00	84.761
1028.50	86.202
1028.00	86.515
1027.50	86.401
1027.00	86.692
1026.50	86.821
1026.00	87.466
1025.50	89.064
1025.00	89.987
1024.50	89.456
1024.00	88.813
1023.50	88.161
1023.00	87.148
1022.50	85.517
1022.00	84.505
1021.50	84.515
1021.00	83.421
1020.50	82.735
1020.00	82.456
1019.50	81.809
1019.00	81.730
1018.50	82.756
1018.00	83.514
1017.50	83.450
1017.00	83.696
1016.50	83.860
1016.00	83.896
1015.50	83.329
1015.00	82.707
1014.50	82.541
1014.00	81.997
1013.50	81.308
1013.00	80.848
1012.50	80.346
1012.00	80.868
1011.50	81.401
1011.00	82.055
1010.50	82.654
1010.00	82.804
1009.50	83.432
1009.00	83.430
1008.50	83.767
1008.00	83.349
1007.50	83.100
1007.00	83.337
1006.50	82.880
1006.00	82.375
1005.50	82.204
1005.00	82.262
1004.50	81.951
1004.00	81.855
1003.50	82.147
1003.00	82.214
1002.50	82.666
1002.00	82.843
1001.50	82.859
1001.00	82.348
1000.50	81.954
1000.00	82.205
999.50	82.509
999.00	82.605
998.50	82.850
998.00	83.278
997.50	83.799
997.00	84.168
996.50	84.096
996.00	83.969
995.50	83.671
995.00	83.419
994.50	83.591
994.00	83.468
993.50	82.852
993.00	82.662
992.50	82.056
992.00	82.028
991.50	81.921
991.00	82.049
990.50	82.397
990.00	83.123
989.50	83.590
989.00	84.064
988.50	83.738
988.00	83.185
987.50	83.029
987.00	83.000
986.50	82.905
986.00	83.215
985.50	82.991
985.00	83.390
984.50	83.412
984.00	83.601
983.50	83.338
983.00	83.214
982.50	83.121
982.00	83.059
981.50	82.979
981.00	82.885
980.50	82.755
980.00	82.998
979.50	82.763
979.00	82.493
978.50	82.392
978.00	82.678
977.50	82.876
977.00	83.042
976.50	83.230
976.00	83.322
975.50	83.213
975.00	82.943
974.50	82.706
974.00	82.733
973.50	83.067
973.00	83.470
972.50	83.350
972.00	83.245
971.50	83.066
971.00	83.158
970.50	83.553
970.00	83.179
969.50	83.285
969.00	83.105
968.50	83.287
968.00	83.400
967.50	83.088
967.00	83.007
966.50	82.700
966.00	82.578
965.50	82.637
965.00	82.503
964.50	82.572
964.00	82.809
963.50	83.150
963.00	83.245
962.50	83.705
962.00	83.517
961.50	83.888
961.00	83.891
960.50	83.672
960.00	84.044
959.50	84.023
959.00	83.854
958.50	83.430
958.00	82.858
957.50	82.809
957.00	83.100
956.50	83.333
956.00	83.450
955.50	83.851
955.00	83.969
954.50	84.176
954.00	84.255
953.50	83.997
953.00	83.831
952.50	84.007
952.00	83.986
951.50	83.862
951.00	83.604
950.50	83.474
950.00	83.451
949.50	83.664
949.00	83.784
948.50	83.962
948.00	84.389
947.50	84.225
947.00	83.965
946.50	83.564
946.00	83.177
945.50	83.182
945.00	83.048
944.50	83.355
944.00	83.657
943.50	83.583
943.00	83.359
942.50	83.448
942.00	83.637
941.50	83.814
941.00	84.306
940.50	84.615
940.00	84.753
939.50	84.531
939.00	84.464
938.50	84.184
938.00	83.704
937.50	83.757
937.00	84.398
936.50	84.280
936.00	84.148
935.50	84.006
935.00	83.810
934.50	84.194
934.00	84.110
933.50	84.155
933.00	84.167
932.50	84.002
932.00	84.390
931.50	84.601
931.00	84.679
930.50	84.603
930.00	84.727
929.50	84.414
929.00	84.227
928.50	83.973
928.00	83.942
927.50	84.242
927.00	84.165
926.50	84.121
926.00	83.962
925.50	84.142
925.00	83.952
924.50	84.272
924.00	84.952
923.50	85.362
923.00	85.493
922.50	85.265
922.00	85.244
921.50	85.084
921.00	84.925
920.50	84.925
920.00	85.267
919.50	85.234
919.00	84.962
918.50	85.064
918.00	84.343
917.50	84.218
917.00	84.118
916.50	84.235
916.00	84.112
915.50	83.955
915.00	84.563
914.50	84.886
914.00	85.066
913.50	84.919
913.00	85.329
912.50	85.319
912.00	85.465
911.50	84.884
911.00	84.624
910.50	84.840
910.00	85.096
909.50	85.119
909.00	85.079
908.50	84.496
908.00	84.727
907.50	85.213
907.00	85.781
906.50	85.766
906.00	86.110
905.50	86.033
905.00	85.911
904.50	84.873
904.00	84.172
903.50	84.303
903.00	84.292
902.50	84.490
902.00	85.094
901.50	84.899
901.00	84.958
900.50	84.998
900.00	85.097
899.50	85.029
899.00	84.827
898.50	84.873
898.00	84.945
897.50	84.977
897.00	84.664
896.50	85.026
896.00	84.759
895.50	85.046
895.00	85.220
894.50	84.911
894.00	85.047
893.50	85.268
893.00	85.893
892.50	86.209
892.00	86.260
891.50	86.377
891.00	85.935
890.50	86.071
890.00	86.224
889.50	85.836
889.00	85.364
888.50	85.424
888.00	85.945
887.50	85.971
887.00	85.800
886.50	85.934
886.00	86.202
885.50	86.489
885.00	86.806
884.50	87.550
884.00	87.093
883.50	86.991
883.00	87.058
882.50	86.689
882.00	86.231
881.50	85.763
881.00	85.848
880.50	86.008
880.00	86.344
879.50	86.572
879.00	86.687
878.50	86.958
878.00	86.988
877.50	87.317
877.00	87.099
876.50	86.890
876.00	86.568
875.50	85.996
875.00	85.826
874.50	86.148
874.00	86.292
873.50	86.564
873.00	86.938
872.50	87.083
872.00	86.968
871.50	86.665
871.00	86.402
870.50	86.461
870.00	86.389
869.50	86.468
869.00	86.728
868.50	86.230
868.00	86.155
867.50	86.374
867.00	86.640
866.50	86.918
866.00	87.144
865.50	86.892
865.00	87.217
864.50	87.083
864.00	86.795
863.50	87.042
863.00	87.378
862.50	87.686
862.00	88.379
861.50	88.399
861.00	88.220
860.50	87.483
860.00	87.182
859.50	86.952
859.00	87.099
858.50	86.603
858.00	86.755
857.50	86.933
857.00	86.898
856.50	87.078
856.00	87.348
855.50	87.197
855.00	87.446
854.50	87.808
854.00	87.721
853.50	87.440
853.00	87.509
852.50	87.321
852.00	87.521
851.50	87.732
851.00	87.761
850.50	87.646
850.00	87.940
849.50	88.046
849.00	88.219
848.50	88.096
848.00	88.116
847.50	88.107
847.00	87.524
846.50	87.192
846.00	87.414
845.50	87.514
845.00	87.623
844.50	87.762
844.00	87.816
843.50	87.631
843.00	87.490
842.50	87.360
842.00	87.593
841.50	87.958
841.00	88.332
840.50	88.280
840.00	87.846
839.50	87.462
839.00	87.456
838.50	87.511
838.00	87.670
837.50	88.092
837.00	88.319
836.50	88.733
836.00	88.411
835.50	87.930
835.00	87.941
834.50	88.335
834.00	88.599
833.50	88.864
833.00	89.062
832.50	89.039
832.00	89.244
831.50	88.913
831.00	88.538
830.50	88.398
830.00	88.555
829.50	88.880
829.00	89.246
828.50	89.099
828.00	89.238
827.50	89.395
827.00	89.044
826.50	88.982
826.00	88.820
825.50	88.603
825.00	88.934
824.50	88.969
824.00	89.257
823.50	89.118
823.00	89.241
822.50	88.968
822.00	89.045
821.50	88.728
821.00	88.838
820.50	89.204
820.00	89.185
819.50	89.585
819.00	89.725
818.50	89.674
818.00	89.671
817.50	89.539
817.00	89.678
816.50	89.658
816.00	89.908
815.50	90.143
815.00	90.514
814.50	90.300
814.00	90.173
813.50	89.826
813.00	89.646
812.50	89.625
812.00	89.801
811.50	89.942
811.00	89.969
810.50	90.175
810.00	90.248
809.50	90.315
809.00	89.936
808.50	89.663
808.00	89.808
807.50	89.862
807.00	89.942
806.50	89.794
806.00	89.938
805.50	90.047
805.00	90.406
804.50	90.711
804.00	90.700
803.50	90.736
803.00	90.596
802.50	90.612
802.00	90.409
801.50	90.272
801.00	90.305
800.50	90.343
800.00	90.208
799.50	90.199
799.00	89.821
798.50	89.550
798.00	89.512
797.50	89.624
797.00	89.888
796.50	90.311
796.00	90.438
795.50	90.571
795.00	90.492
794.50	90.443
794.00	90.383
793.50	90.525
793.00	90.588
792.50	90.742
792.00	90.784
791.50	90.852
791.00	90.944
790.50	90.706
790.00	90.501
789.50	90.411
789.00	90.026
788.50	89.898
788.00	89.725
787.50	89.587
787.00	89.863
786.50	90.180
786.00	90.570
785.50	90.681
785.00	90.688
784.50	90.615
784.00	90.707
783.50	90.508
783.00	90.478
782.50	90.479
782.00	90.600
781.50	90.725
781.00	90.948
780.50	90.909
780.00	91.080
779.50	91.144
779.00	91.336
778.50	91.201
778.00	90.996
777.50	90.769
777.00	90.797
776.50	90.725
776.00	90.841
775.50	90.806
775.00	90.887
774.50	90.908
774.00	91.007
773.50	90.980
773.00	90.914
772.50	90.856
772.00	90.762
771.50	90.655
771.00	90.602
770.50	90.600
770.00	90.797
769.50	90.854
769.00	90.948
768.50	90.988
768.00	90.870
767.50	90.778
767.00	90.702
766.50	90.521
766.00	90.588
765.50	90.750
765.00	90.857
764.50	90.772
764.00	90.707
763.50	90.646
763.00	90.672
762.50	90.665
762.00	90.675
761.50	90.773
761.00	90.777
760.50	90.840
760.00	90.923
759.50	90.881
759.00	91.013
758.50	91.157
758.00	91.282
757.50	91.209
757.00	91.143
756.50	90.998
756.00	90.926
755.50	90.811
755.00	90.706
754.50	90.779
754.00	90.788
753.50	90.860
753.00	90.852
752.50	90.803
752.00	90.790
751.50	90.820
751.00	90.805
750.50	90.968
750.00	91.098
749.50	91.257
749.00	91.526
748.50	91.667
748.00	91.860
747.50	92.054
747.00	92.127
746.50	92.189
746.00	92.328
745.50	92.452
745.00	92.595
744.50	92.573
744.00	92.509
743.50	92.591
743.00	92.588
742.50	92.519
742.00	92.465
741.50	92.339
741.00	92.213
740.50	92.025
740.00	91.831
739.50	91.530
739.00	91.406
738.50	91.278
738.00	91.301
737.50	91.275
737.00	91.257
736.50	91.265
736.00	91.310
735.50	91.294
735.00	91.318
734.50	91.282
734.00	91.380
733.50	91.395
733.00	91.378
732.50	91.244
732.00	91.206
731.50	91.171
731.00	91.264
730.50	91.378
730.00	91.527
729.50	91.506
729.00	91.474
728.50	91.383
728.00	91.289
727.50	91.114
727.00	91.169
726.50	91.280
726.00	91.338
725.50	91.313
725.00	91.322
724.50	91.258
724.00	91.212
723.50	91.123
723.00	91.095
722.50	91.059
722.00	91.044
721.50	91.120
721.00	91.183
720.50	91.178
720.00	91.214
719.50	91.194
719.00	91.207
718.50	91.104
718.00	91.038
717.50	90.963
717.00	91.000
716.50	90.973
716.00	90.981
715.50	91.041
715.00	91.045
714.50	91.065
714.00	91.150
713.50	91.192
713.00	91.206
712.50	91.088
712.00	91.094
711.50	91.071
711.00	91.035
710.50	90.988
710.00	91.000
709.50	90.964
709.00	90.906
708.50	90.905
708.00	90.954
707.50	91.028
707.00	91.130
706.50	91.159
706.00	91.146
705.50	91.037
705.00	90.977
704.50	90.887
704.00	90.747
703.50	90.653
703.00	90.631
702.50	90.756
702.00	90.812
701.50	90.872
701.00	90.893
700.50	90.990
700.00	91.020
699.50	90.908
699.00	90.857
698.50	90.758
698.00	90.714
697.50	90.756
697.00	90.741
696.50	90.771
696.00	90.772
695.50	90.756
695.00	90.717
694.50	90.672
694.00	90.639
693.50	90.676
693.00	90.782
692.50	90.778
692.00	90.793
691.50	90.800
691.00	90.744
690.50	90.678
690.00	90.567
689.50	90.526
689.00	90.568
688.50	90.552
688.00	90.573
687.50	90.539
687.00	90.453
686.50	90.391
686.00	90.352
685.50	90.340
685.00	90.305
684.50	90.338
684.00	90.355
683.50	90.293
683.00	90.246
682.50	90.170
682.00	90.135
681.50	90.132
681.00	90.207
680.50	90.250
680.00	90.244
679.50	90.282
679.00	90.220
678.50	90.173
678.00	90.090
677.50	90.032
677.00	90.048
676.50	90.055
676.00	90.110
675.50	90.134
675.00	90.148
674.50	90.141
674.00	90.161
673.50	90.083
673.00	90.018
672.50	89.955
672.00	89.946
671.50	89.998
671.00	90.026
670.50	90.065
670.00	90.101
669.50	90.095
669.00	90.069
668.50	89.966
668.00	89.886
667.50	89.809
667.00	89.790
666.50	89.750
666.00	89.802
665.50	89.766
665.00	89.719
664.50	89.628
664.00	89.553
663.50	89.544
663.00	89.550
662.50	89.560
662.00	89.577
661.50	89.572
661.00	89.574
660.50	89.626
660.00	89.558
659.50	89.497
659.00	89.524
658.50	89.577
658.00	89.611
657.50	89.557
657.00	89.512
656.50	89.446
656.00	89.418
655.50	89.411
655.00	89.329
654.50	89.220
654.00	89.188
653.50	89.295
653.00	89.264
652.50	89.240
652.00	89.193
651.50	89.137
651.00	89.128
650.50	89.045
650.00	88.964
649.50	88.877
649.00	88.881
648.50	88.892
648.00	88.922
647.50	88.910
647.00	88.852
646.50	88.830
646.00	88.805
645.50	88.758
645.00	88.733
644.50	88.678
644.00	88.713
643.50	88.723
643.00	88.702
642.50	88.683
642.00	88.690
641.50	88.627
641.00	88.627
640.50	88.639
640.00	88.575
639.50	88.524
639.00	88.529
638.50	88.440
638.00	88.366
637.50	88.297
637.00	88.262
636.50	88.224
636.00	88.166
635.50	88.119
635.00	88.085
634.50	88.071
634.00	88.032
633.50	87.940
633.00	87.914
632.50	87.868
632.00	87.889
631.50	87.887
631.00	87.821
630.50	87.759
630.00	87.748
629.50	87.742
629.00	87.736
628.50	87.775
628.00	87.769
627.50	87.791
627.00	87.692
626.50	87.543
626.00	87.481
625.50	87.411
625.00	87.397
624.50	87.431
624.00	87.438
623.50	87.400
623.00	87.399
622.50	87.350
622.00	87.287
621.50	87.293
621.00	87.230
620.50	87.194
620.00	87.116
619.50	87.073
619.00	87.018
618.50	86.987
618.00	86.976
617.50	86.961
617.00	86.925
616.50	86.891
616.00	86.836
615.50	86.733
615.00	86.633
614.50	86.593
614.00	86.549
613.50	86.514
613.00	86.444
612.50	86.423
612.00	86.381
611.50	86.365
611.00	86.312
610.50	86.257
610.00	86.152
609.50	86.120
609.00	86.078
608.50	86.054
608.00	86.025
607.50	85.982
607.00	85.966
606.50	85.952
606.00	85.921
605.50	85.840
605.00	85.774
604.50	85.662
604.00	85.521
603.50	85.490
603.00	85.438
602.50	85.421
602.00	85.397
601.50	85.316
601.00	85.248
600.50	85.168
600.00	85.056
599.50	84.883
599.00	84.824
598.50	84.734
598.00	84.709
597.50	84.720
597.00	84.647
596.50	84.728
596.00	84.676
595.50	84.615
595.00	84.535
594.50	84.398
594.00	84.282
593.50	84.184
593.00	84.062
592.50	84.009
592.00	84.081
591.50	84.140
591.00	84.143
590.50	84.099
590.00	84.028
589.50	83.997
589.00	83.888
588.50	83.777
588.00	83.690
587.50	83.653
587.00	83.652
586.50	83.602
586.00	83.509
585.50	83.407
585.00	83.344
584.50	83.283
584.00	83.161
583.50	82.966
583.00	82.839
582.50	82.713
582.00	82.591
581.50	82.462
581.00	82.398
580.50	82.330
580.00	82.255
579.50	82.182
579.00	82.120
578.50	81.969
578.00	81.876
577.50	81.756
577.00	81.715
576.50	81.601
576.00	81.469
575.50	81.361
575.00	81.246
574.50	81.124
574.00	81.008
573.50	80.854
573.00	80.690
572.50	80.574
572.00	80.496
571.50	80.441
571.00	80.364
570.50	80.246
570.00	80.193
569.50	80.100
569.00	80.017
568.50	79.883
568.00	79.824
567.50	79.752
567.00	79.612
566.50	79.460
566.00	79.293
565.50	79.100
565.00	78.945
564.50	78.841
564.00	78.745
563.50	78.672
563.00	78.541
562.50	78.396
562.00	78.226
561.50	77.951
561.00	77.778
560.50	77.637
560.00	77.514
559.50	77.404
559.00	77.280
558.50	77.164
558.00	77.067
557.50	76.944
557.00	76.830
556.50	76.680
556.00	76.511
555.50	76.329
555.00	76.173
554.50	75.953
554.00	75.772
553.50	75.609
553.00	75.510
552.50	75.391
552.00	75.254
551.50	75.098
551.00	74.932
550.50	74.757
550.00	74.546
549.50	74.348
549.00	74.182
548.50	73.994
548.00	73.799
547.50	73.616
547.00	73.398
546.50	73.216
546.00	73.009
545.50	72.783
545.00	72.582
544.50	72.369
544.00	72.187
543.50	72.016
543.00	71.758
542.50	71.525
542.00	71.309
541.50	71.078
541.00	70.846
540.50	70.642
540.00	70.426
539.50	70.265
539.00	70.095
538.50	69.909
538.00	69.661
537.50	69.434
537.00	69.198
536.50	68.947
536.00	68.657
535.50	68.377
535.00	68.114
534.50	67.825
534.00	67.555
533.50	67.285
533.00	67.027
532.50	66.745
532.00	66.446
531.50	66.159
531.00	65.825
530.50	65.578
530.00	65.293
529.50	65.071
529.00	64.870
528.50	64.645
528.00	64.392
527.50	64.090
527.00	63.751
