ｻﾝﾌﾟﾙ:	GaAs_190-1100_600_1_05_R
ﾌｧｲﾙ名:	GaAs_190-1100_600_1_05_R.UDS
分析日時:	'13:53:57, 09/20/2024
ｵﾍﾟﾚｰﾀ:	OB
ｺﾒﾝﾄ:	'

光度計
ﾓﾃﾞﾙ:	U-3900形分光光度計
ｼﾘｱﾙ No.:	'3004-010
ROM Ver.:	2J25300 07

装置条件
測定ﾓｰﾄﾞ:	波長ｽｷｬﾝ
ﾃﾞｰﾀﾓｰﾄﾞ:	%T
開始波長:	1100.00 nm
終了波長:	190.00 nm
ｽｷｬﾝｽﾋﾟｰﾄﾞ:	600 nm/min
ｻﾝﾌﾟﾘﾝｸﾞ間隔:	0.50 nm
初期待ち時間:	0 s
繰り返し周期:	0.0 min
測定回数:	1
測定前ｵｰﾄｾﾞﾛ:	Off
ｽﾘｯﾄ:	1 nm
ﾎﾄﾏﾙ電圧:	自動制御
光源切換ﾓｰﾄﾞ:	自動切換
光源切換波長:	340.00 nm
ﾍﾞｰｽﾗｲﾝ設定:	ﾕｰｻﾞ 1
高分解能測定:	Off
D2ﾗﾝﾌﾟ:	On
WIﾗﾝﾌﾟ:	On
R/S反転:	Off
ｾﾙ長:	10.0 mm

ﾋﾟｰｸ検出
検出方法:	Rectangular
感度:	1
しきい値:	0.0100

ﾋﾟｰｸ
ﾋﾟｰｸ No.	開始 (nm)	ﾋﾟｰｸ (nm)	終了 (nm)	高さ (%T)	ﾊﾞﾚｰ (nm)	ﾊﾞﾚｰ (%T)
1	1100.00	1099.00	1096.50	-139.200	1096.50	155.581
2	1096.50	1090.50	1088.00	-137.864	1088.00	915.913
3	1088.00	1082.00	1080.00	-18.934	1080.00	58.098
4	1080.00	1074.00	1070.50	5.284	1070.50	39.831
5	1070.50	1067.00	1063.00	30.689	1063.00	41.396
6	1063.00	1056.50	1051.50	20.944	1051.50	28.529
7	1051.50	1048.50	1044.50	22.953	1044.50	27.512
8	1044.50	1034.00	1024.50	22.400	1024.50	33.824
9	1024.50	1019.00	1015.00	26.656	1015.00	27.419
10	1015.00	1011.50	1007.00	26.687	1007.00	27.259
11	1007.00	1002.00	994.00	26.619	994.00	27.469
12	994.00	990.50	988.50	26.716	988.50	27.371
13	988.50	985.50	983.50	26.701	983.50	27.095
14	983.50	981.00	977.00	26.560	977.00	27.047
15	977.00	975.50	973.50	26.727	973.50	27.045
16	973.50	971.50	969.00	26.606	969.00	27.299
17	969.00	966.50	961.50	26.712	961.50	27.211
18	961.50	958.00	952.00	26.900	952.00	27.504
19	952.00	950.00	940.50	26.784	940.50	27.462
20	940.50	936.00	933.50	26.787	933.50	27.513
21	933.50	928.00	923.50	26.851	923.50	27.490
22	923.50	920.50	919.50	27.182	919.50	27.507
23	919.50	917.00	914.50	27.260	914.50	27.484
24	914.50	911.00	907.50	26.394	907.50	27.141
25	907.50	888.50	884.50	20.158	884.50	20.786
26	884.50	881.00	877.50	20.174	877.50	21.060
27	877.50	874.00	870.00	20.220	870.00	20.853
28	870.00	867.50	864.50	19.966	864.50	20.734
29	864.50	863.00	862.00	20.397	862.00	20.748
30	862.00	860.00	855.50	20.492	855.50	20.792
31	855.50	854.00	851.00	20.589	851.00	21.077
32	851.00	846.50	844.00	20.581	844.00	20.926
33	844.00	838.50	836.00	20.537	836.00	20.999
34	836.00	834.00	832.50	20.876	832.50	20.957
35	832.50	829.50	826.00	20.814	826.00	21.303
36	826.00	824.50	820.50	21.060	820.50	21.324
37	820.50	817.50	815.00	20.980	815.00	21.385
38	815.00	813.00	810.50	20.951	810.50	21.268
39	810.50	808.50	802.50	21.159	802.50	21.432
40	802.50	797.50	791.00	21.222	791.00	21.677
41	791.00	788.00	785.00	21.343	785.00	21.572
42	785.00	782.50	779.00	21.459	779.00	21.729
43	779.00	777.00	773.50	21.503	773.50	21.694
44	773.50	770.00	768.00	21.569	768.00	21.707
45	768.00	766.00	763.50	21.547	763.50	21.680
46	763.50	761.50	758.00	21.547	758.00	21.824
47	758.00	755.00	742.50	21.627	742.50	23.142
48	742.50	735.00	729.00	22.188	729.00	22.313
49	729.00	727.50	725.00	22.253	725.00	22.312
50	725.00	722.00	718.00	22.251	718.00	22.379
51	718.00	715.00	713.00	22.234	713.00	22.398
52	713.00	710.00	704.50	22.260	704.50	22.429
53	704.50	702.00	699.00	22.387	699.00	22.438
54	699.00	697.00	692.00	22.384	692.00	22.491
55	692.00	690.00	687.50	22.421	687.50	22.472
56	687.50	684.00	679.50	22.400	679.50	22.513
57	679.50	677.00	670.00	22.427	670.00	22.566
58	670.00	667.50	662.50	22.487	662.50	22.575
59	662.50	660.00	658.00	22.512	658.00	22.613
60	658.00	654.50	651.00	22.570	651.00	22.653
61	651.00	649.50	646.50	22.608	646.50	22.674
62	646.50	644.00	638.00	22.635	638.00	22.709
63	638.00	634.50	609.50	22.661	609.50	22.979
64	609.50	607.00	601.50	22.905	601.50	23.020
65	601.50	600.00	585.00	22.962	585.00	23.487
66	585.00	578.50	574.00	23.099	574.00	23.165
67	574.00	571.50	567.00	23.122	567.00	23.223
68	567.00	565.00	562.00	23.172	562.00	23.246
69	562.00	559.00	549.00	23.192	549.00	23.365
70	549.00	547.50	508.50	23.335	508.50	24.877
71	508.50	505.50	428.00	24.817	428.00	30.570
72	428.00	406.00	400.00	29.060	400.00	29.358
73	400.00	347.50	343.00	25.152	343.00	25.446
74	343.00	342.00	333.00	25.111	333.00	28.244
75	333.00	323.00	243.50	28.010	243.50	55.315
76	243.50	230.00	228.00	54.593	228.00	54.670
77	228.00	226.50	222.50	54.539	222.50	54.603
78	222.50	200.50	190.00	52.735	190.00	63.715

ﾃﾞｰﾀﾘｽﾄ
nm	%T
1100.00	-57.967
1099.50	-123.084
1099.00	-139.200
1098.50	-107.987
1098.00	-57.267
1097.50	7.058
1097.00	83.231
1096.50	155.581
1096.00	150.988
1095.50	112.767
1095.00	29.410
1094.50	73.112
1094.00	70.919
1093.50	75.076
1093.00	122.145
1092.50	77.186
1092.00	71.407
1091.50	253.232
1091.00	-126.004
1090.50	-137.864
1090.00	84.328
1089.50	412.778
1089.00	681.421
1088.50	876.918
1088.00	915.913
1087.50	817.899
1087.00	613.709
1086.50	338.084
1086.00	90.733
1085.50	-133.788
1085.00	-113.541
1084.50	270.906
1084.00	93.726
1083.50	57.975
1083.00	16.533
1082.50	-15.732
1082.00	-18.934
1081.50	16.738
1081.00	33.481
1080.50	49.994
1080.00	58.098
1079.50	53.319
1079.00	48.325
1078.50	26.011
1078.00	22.083
1077.50	15.672
1077.00	16.215
1076.50	21.361
1076.00	23.705
1075.50	22.195
1075.00	16.543
1074.50	12.834
1074.00	5.284
1073.50	10.034
1073.00	12.881
1072.50	7.886
1072.00	12.947
1071.50	21.021
1071.00	33.110
1070.50	39.831
1070.00	37.215
1069.50	34.296
1069.00	36.170
1068.50	34.481
1068.00	32.039
1067.50	32.212
1067.00	30.689
1066.50	33.508
1066.00	39.782
1065.50	36.363
1065.00	37.644
1064.50	38.237
1064.00	40.158
1063.50	40.533
1063.00	41.396
1062.50	35.152
1062.00	33.782
1061.50	28.059
1061.00	25.191
1060.50	26.991
1060.00	26.300
1059.50	29.518
1059.00	33.028
1058.50	28.836
1058.00	27.829
1057.50	24.940
1057.00	22.492
1056.50	20.944
1056.00	22.700
1055.50	24.537
1055.00	27.469
1054.50	25.806
1054.00	24.941
1053.50	26.204
1053.00	24.732
1052.50	26.504
1052.00	28.021
1051.50	28.529
1051.00	28.494
1050.50	28.296
1050.00	27.212
1049.50	25.536
1049.00	23.496
1048.50	22.953
1048.00	24.218
1047.50	24.112
1047.00	24.603
1046.50	25.668
1046.00	25.680
1045.50	26.096
1045.00	27.183
1044.50	27.512
1044.00	27.239
1043.50	27.496
1043.00	27.195
1042.50	27.277
1042.00	27.024
1041.50	26.879
1041.00	26.017
1040.50	25.856
1040.00	25.481
1039.50	25.143
1039.00	24.531
1038.50	24.226
1038.00	24.311
1037.50	24.504
1037.00	24.340
1036.50	24.230
1036.00	23.994
1035.50	23.558
1035.00	22.970
1034.50	22.782
1034.00	22.400
1033.50	22.935
1033.00	23.312
1032.50	23.919
1032.00	24.340
1031.50	24.558
1031.00	24.643
1030.50	25.249
1030.00	25.757
1029.50	26.418
1029.00	27.210
1028.50	27.985
1028.00	28.731
1027.50	29.458
1027.00	29.971
1026.50	30.774
1026.00	31.631
1025.50	32.661
1025.00	33.549
1024.50	33.824
1024.00	33.671
1023.50	33.402
1023.00	32.589
1022.50	31.651
1022.00	30.564
1021.50	29.240
1021.00	28.032
1020.50	27.503
1020.00	27.159
1019.50	26.745
1019.00	26.656
1018.50	26.761
1018.00	26.858
1017.50	26.852
1017.00	26.907
1016.50	27.063
1016.00	27.126
1015.50	27.234
1015.00	27.419
1014.50	27.401
1014.00	27.063
1013.50	26.771
1013.00	26.817
1012.50	26.711
1012.00	26.786
1011.50	26.687
1011.00	26.698
1010.50	26.845
1010.00	26.711
1009.50	26.733
1009.00	26.788
1008.50	27.113
1008.00	27.145
1007.50	27.212
1007.00	27.259
1006.50	26.952
1006.00	26.953
1005.50	27.011
1005.00	26.932
1004.50	26.750
1004.00	26.678
1003.50	27.023
1003.00	27.006
1002.50	26.840
1002.00	26.619
1001.50	26.791
1001.00	26.743
1000.50	26.803
1000.00	26.894
999.50	26.903
999.00	26.983
998.50	26.881
998.00	26.895
997.50	26.907
997.00	26.821
996.50	26.959
996.00	27.172
995.50	27.217
995.00	27.138
994.50	27.379
994.00	27.469
993.50	27.362
993.00	27.246
992.50	27.151
992.00	27.127
991.50	26.916
991.00	26.751
990.50	26.716
990.00	26.774
989.50	26.956
989.00	27.268
988.50	27.371
988.00	27.287
987.50	27.227
987.00	27.262
986.50	26.937
986.00	26.741
985.50	26.701
985.00	26.796
984.50	26.904
984.00	27.058
983.50	27.095
983.00	26.850
982.50	26.701
982.00	26.658
981.50	26.657
981.00	26.560
980.50	26.608
980.00	26.805
979.50	26.802
979.00	26.795
978.50	26.914
978.00	27.000
977.50	26.949
977.00	27.047
976.50	27.044
976.00	26.826
975.50	26.727
975.00	26.737
974.50	26.905
974.00	26.979
973.50	27.045
973.00	27.014
972.50	26.827
972.00	26.628
971.50	26.606
971.00	26.700
970.50	26.878
970.00	27.128
969.50	27.299
969.00	27.299
968.50	27.258
968.00	27.086
967.50	26.810
967.00	26.761
966.50	26.712
966.00	26.819
965.50	27.009
965.00	27.039
964.50	27.107
964.00	27.111
963.50	27.163
963.00	27.141
962.50	27.136
962.00	27.033
961.50	27.211
961.00	27.205
960.50	27.090
960.00	27.096
959.50	27.071
959.00	27.049
958.50	26.997
958.00	26.900
957.50	27.041
957.00	27.204
956.50	27.320
956.00	27.316
955.50	27.192
955.00	27.073
954.50	27.293
954.00	27.232
953.50	27.304
953.00	27.232
952.50	27.355
952.00	27.504
951.50	27.395
951.00	27.168
950.50	26.901
950.00	26.784
949.50	26.820
949.00	26.857
948.50	26.797
948.00	26.854
947.50	26.914
947.00	26.844
946.50	27.013
946.00	26.940
945.50	26.981
945.00	26.917
944.50	26.890
944.00	26.962
943.50	26.930
943.00	26.869
942.50	27.073
942.00	27.274
941.50	27.352
941.00	27.459
940.50	27.462
940.00	27.313
939.50	27.251
939.00	27.279
938.50	27.322
938.00	27.239
937.50	27.124
937.00	27.126
936.50	26.928
936.00	26.787
935.50	26.980
935.00	27.172
934.50	27.426
934.00	27.420
933.50	27.513
933.00	27.466
932.50	27.337
932.00	27.356
931.50	27.299
931.00	27.434
930.50	27.342
930.00	27.395
929.50	27.172
929.00	26.979
928.50	26.992
928.00	26.851
927.50	26.944
927.00	26.958
926.50	27.099
926.00	27.094
925.50	27.237
925.00	27.220
924.50	27.264
924.00	27.472
923.50	27.490
923.00	27.445
922.50	27.334
922.00	27.248
921.50	27.384
921.00	27.285
920.50	27.182
920.00	27.311
919.50	27.507
919.00	27.434
918.50	27.417
918.00	27.273
917.50	27.371
917.00	27.260
916.50	27.325
916.00	27.395
915.50	27.353
915.00	27.358
914.50	27.484
914.00	27.387
913.50	27.168
913.00	27.002
912.50	27.061
912.00	26.958
911.50	26.635
911.00	26.394
910.50	26.467
910.00	26.437
909.50	26.638
909.00	26.868
908.50	26.902
908.00	27.005
907.50	27.141
907.00	27.072
906.50	26.776
906.00	26.450
905.50	26.350
905.00	26.229
904.50	26.027
904.00	25.848
903.50	25.711
903.00	25.540
902.50	25.365
902.00	25.188
901.50	24.916
901.00	24.765
900.50	24.595
900.00	24.418
899.50	24.170
899.00	23.958
898.50	23.831
898.00	23.643
897.50	23.318
897.00	22.866
896.50	22.490
896.00	22.109
895.50	21.720
895.00	21.380
894.50	20.997
894.00	20.731
893.50	20.538
893.00	20.489
892.50	20.440
892.00	20.419
891.50	20.386
891.00	20.337
890.50	20.416
890.00	20.452
889.50	20.410
889.00	20.273
888.50	20.158
888.00	20.268
887.50	20.368
887.00	20.318
886.50	20.351
886.00	20.423
885.50	20.502
885.00	20.658
884.50	20.786
884.00	20.649
883.50	20.631
883.00	20.618
882.50	20.573
882.00	20.565
881.50	20.317
881.00	20.174
880.50	20.234
880.00	20.226
879.50	20.297
879.00	20.442
878.50	20.703
878.00	20.896
877.50	21.060
877.00	20.989
876.50	20.824
876.00	20.626
875.50	20.416
875.00	20.384
874.50	20.292
874.00	20.220
873.50	20.363
873.00	20.429
872.50	20.345
872.00	20.363
871.50	20.622
871.00	20.745
870.50	20.852
870.00	20.853
869.50	20.733
869.00	20.570
868.50	20.178
868.00	20.002
867.50	19.966
867.00	20.117
866.50	20.468
866.00	20.721
865.50	20.732
865.00	20.692
864.50	20.734
864.00	20.531
863.50	20.415
863.00	20.397
862.50	20.595
862.00	20.748
861.50	20.704
861.00	20.691
860.50	20.616
860.00	20.492
859.50	20.500
859.00	20.508
858.50	20.503
858.00	20.555
857.50	20.662
857.00	20.699
856.50	20.748
856.00	20.762
855.50	20.792
855.00	20.717
854.50	20.717
854.00	20.589
853.50	20.596
853.00	20.651
852.50	20.824
852.00	20.935
851.50	21.066
851.00	21.077
850.50	20.977
850.00	20.945
849.50	20.945
849.00	20.859
848.50	20.818
848.00	20.768
847.50	20.798
847.00	20.635
846.50	20.581
846.00	20.619
845.50	20.725
845.00	20.803
844.50	20.903
844.00	20.926
843.50	20.830
843.00	20.738
842.50	20.742
842.00	20.823
841.50	20.874
841.00	20.891
840.50	20.859
840.00	20.702
839.50	20.612
839.00	20.543
838.50	20.537
838.00	20.632
837.50	20.771
837.00	20.878
836.50	20.983
836.00	20.999
835.50	20.869
835.00	20.900
834.50	20.881
834.00	20.876
833.50	20.892
833.00	20.916
832.50	20.957
832.00	20.919
831.50	20.874
831.00	20.924
830.50	20.941
830.00	20.885
829.50	20.814
829.00	20.889
828.50	20.947
828.00	21.055
827.50	21.189
827.00	21.214
826.50	21.222
826.00	21.303
825.50	21.220
825.00	21.180
824.50	21.060
824.00	21.095
823.50	21.066
823.00	21.179
822.50	21.136
822.00	21.119
821.50	21.139
821.00	21.176
820.50	21.324
820.00	21.307
819.50	21.311
819.00	21.274
818.50	21.147
818.00	21.018
817.50	20.980
817.00	21.076
816.50	21.132
816.00	21.267
815.50	21.367
815.00	21.385
814.50	21.251
814.00	21.086
813.50	21.056
813.00	20.951
812.50	21.000
812.00	21.035
811.50	21.180
811.00	21.191
810.50	21.268
810.00	21.261
809.50	21.255
809.00	21.185
808.50	21.159
808.00	21.170
807.50	21.166
807.00	21.162
806.50	21.200
806.00	21.166
805.50	21.245
805.00	21.318
804.50	21.314
804.00	21.343
803.50	21.393
803.00	21.414
802.50	21.432
802.00	21.417
801.50	21.397
801.00	21.358
800.50	21.386
800.00	21.377
799.50	21.371
799.00	21.254
798.50	21.249
798.00	21.277
797.50	21.222
797.00	21.260
796.50	21.312
796.00	21.332
795.50	21.370
795.00	21.406
794.50	21.428
794.00	21.387
793.50	21.440
793.00	21.429
792.50	21.509
792.00	21.582
791.50	21.645
791.00	21.677
790.50	21.621
790.00	21.566
789.50	21.540
789.00	21.465
788.50	21.396
788.00	21.343
787.50	21.357
787.00	21.414
786.50	21.504
786.00	21.507
785.50	21.519
785.00	21.572
784.50	21.566
784.00	21.566
783.50	21.569
783.00	21.507
782.50	21.459
782.00	21.460
781.50	21.471
781.00	21.504
780.50	21.538
780.00	21.596
779.50	21.678
779.00	21.729
778.50	21.691
778.00	21.659
777.50	21.568
777.00	21.503
776.50	21.524
776.00	21.519
775.50	21.538
775.00	21.569
774.50	21.616
774.00	21.664
773.50	21.694
773.00	21.683
772.50	21.689
772.00	21.650
771.50	21.577
771.00	21.586
770.50	21.577
770.00	21.569
769.50	21.604
769.00	21.664
768.50	21.689
768.00	21.707
767.50	21.681
767.00	21.629
766.50	21.566
766.00	21.547
765.50	21.592
765.00	21.622
764.50	21.614
764.00	21.658
763.50	21.680
763.00	21.648
762.50	21.596
762.00	21.564
761.50	21.547
761.00	21.562
760.50	21.635
760.00	21.687
759.50	21.719
759.00	21.785
758.50	21.797
758.00	21.824
757.50	21.774
757.00	21.738
756.50	21.697
756.00	21.670
755.50	21.661
755.00	21.627
754.50	21.665
754.00	21.679
753.50	21.705
753.00	21.709
752.50	21.702
752.00	21.714
751.50	21.718
751.00	21.743
750.50	21.766
750.00	21.792
749.50	21.841
749.00	21.919
748.50	22.013
748.00	22.081
747.50	22.213
747.00	22.355
746.50	22.502
746.00	22.671
745.50	22.830
745.00	22.950
744.50	23.048
744.00	23.106
743.50	23.135
743.00	23.141
742.50	23.142
742.00	23.097
741.50	23.001
741.00	22.859
740.50	22.687
740.00	22.498
739.50	22.352
739.00	22.236
738.50	22.178
738.00	22.198
737.50	22.223
737.00	22.224
736.50	22.223
736.00	22.215
735.50	22.200
735.00	22.188
734.50	22.189
734.00	22.221
733.50	22.244
733.00	22.238
732.50	22.246
732.00	22.233
731.50	22.228
731.00	22.269
730.50	22.287
730.00	22.289
729.50	22.307
729.00	22.313
728.50	22.289
728.00	22.280
727.50	22.253
727.00	22.262
726.50	22.280
726.00	22.288
725.50	22.301
725.00	22.312
724.50	22.306
724.00	22.286
723.50	22.281
723.00	22.263
722.50	22.256
722.00	22.251
721.50	22.251
721.00	22.281
720.50	22.293
720.00	22.302
719.50	22.323
719.00	22.342
718.50	22.356
718.00	22.379
717.50	22.353
717.00	22.309
716.50	22.304
716.00	22.278
715.50	22.255
715.00	22.234
714.50	22.261
714.00	22.324
713.50	22.386
713.00	22.398
712.50	22.389
712.00	22.352
711.50	22.327
711.00	22.304
710.50	22.270
710.00	22.260
709.50	22.294
709.00	22.336
708.50	22.362
708.00	22.358
707.50	22.364
707.00	22.375
706.50	22.365
706.00	22.358
705.50	22.384
705.00	22.403
704.50	22.429
704.00	22.428
703.50	22.416
703.00	22.402
702.50	22.393
702.00	22.387
701.50	22.392
701.00	22.390
700.50	22.403
700.00	22.429
699.50	22.429
699.00	22.438
698.50	22.425
698.00	22.409
697.50	22.403
697.00	22.384
696.50	22.403
696.00	22.421
695.50	22.418
695.00	22.416
694.50	22.445
694.00	22.448
693.50	22.469
693.00	22.481
692.50	22.476
692.00	22.491
691.50	22.476
691.00	22.459
690.50	22.449
690.00	22.421
689.50	22.423
689.00	22.431
688.50	22.448
688.00	22.457
687.50	22.472
687.00	22.461
686.50	22.464
686.00	22.442
685.50	22.422
685.00	22.409
684.50	22.406
684.00	22.400
683.50	22.409
683.00	22.429
682.50	22.441
682.00	22.449
681.50	22.458
681.00	22.459
680.50	22.461
680.00	22.472
679.50	22.513
679.00	22.512
678.50	22.500
678.00	22.469
677.50	22.449
677.00	22.427
676.50	22.431
676.00	22.436
675.50	22.452
675.00	22.487
674.50	22.506
674.00	22.529
673.50	22.509
673.00	22.491
672.50	22.498
672.00	22.517
671.50	22.546
671.00	22.552
670.50	22.560
670.00	22.566
669.50	22.564
669.00	22.538
668.50	22.503
668.00	22.487
667.50	22.487
667.00	22.500
666.50	22.491
666.00	22.512
665.50	22.519
665.00	22.534
664.50	22.534
664.00	22.527
663.50	22.542
663.00	22.563
662.50	22.575
662.00	22.564
661.50	22.538
661.00	22.517
660.50	22.520
660.00	22.512
659.50	22.514
659.00	22.550
658.50	22.580
658.00	22.613
657.50	22.600
657.00	22.595
656.50	22.587
656.00	22.589
655.50	22.593
655.00	22.580
654.50	22.570
654.00	22.578
653.50	22.604
653.00	22.606
652.50	22.615
652.00	22.638
651.50	22.638
651.00	22.653
650.50	22.638
650.00	22.622
649.50	22.608
649.00	22.626
648.50	22.619
648.00	22.639
647.50	22.659
647.00	22.664
646.50	22.674
646.00	22.671
645.50	22.661
645.00	22.666
644.50	22.641
644.00	22.635
643.50	22.645
643.00	22.651
642.50	22.667
642.00	22.691
641.50	22.677
641.00	22.685
640.50	22.693
640.00	22.677
639.50	22.684
639.00	22.695
638.50	22.696
638.00	22.709
637.50	22.695
637.00	22.687
636.50	22.677
636.00	22.667
635.50	22.670
635.00	22.662
634.50	22.661
634.00	22.670
633.50	22.685
633.00	22.690
632.50	22.705
632.00	22.716
631.50	22.738
631.00	22.751
630.50	22.746
630.00	22.750
629.50	22.736
629.00	22.724
628.50	22.738
628.00	22.753
627.50	22.762
627.00	22.761
626.50	22.772
626.00	22.777
625.50	22.781
625.00	22.761
624.50	22.771
624.00	22.767
623.50	22.768
623.00	22.788
622.50	22.804
622.00	22.808
621.50	22.833
621.00	22.836
620.50	22.836
620.00	22.837
619.50	22.850
619.00	22.864
618.50	22.857
618.00	22.845
617.50	22.855
617.00	22.856
616.50	22.857
616.00	22.841
615.50	22.840
615.00	22.847
614.50	22.870
614.00	22.874
613.50	22.884
613.00	22.877
612.50	22.881
612.00	22.899
611.50	22.908
611.00	22.920
610.50	22.940
610.00	22.956
609.50	22.979
609.00	22.949
608.50	22.943
608.00	22.920
607.50	22.906
607.00	22.905
606.50	22.931
606.00	22.958
605.50	22.977
605.00	22.985
604.50	22.980
604.00	22.963
603.50	22.976
603.00	22.980
602.50	23.016
602.00	23.006
601.50	23.020
601.00	22.991
600.50	22.986
600.00	22.962
599.50	22.964
599.00	22.982
598.50	22.997
598.00	23.007
597.50	23.034
597.00	23.021
596.50	23.041
596.00	23.019
595.50	23.032
595.00	23.037
594.50	23.061
594.00	23.050
593.50	23.071
593.00	23.059
592.50	23.071
592.00	23.094
591.50	23.133
591.00	23.159
590.50	23.191
590.00	23.204
589.50	23.246
589.00	23.268
588.50	23.305
588.00	23.334
587.50	23.391
587.00	23.428
586.50	23.467
586.00	23.484
585.50	23.483
585.00	23.487
584.50	23.468
584.00	23.444
583.50	23.398
583.00	23.343
582.50	23.289
582.00	23.234
581.50	23.193
581.00	23.159
580.50	23.140
580.00	23.131
579.50	23.124
579.00	23.116
578.50	23.099
578.00	23.132
577.50	23.135
577.00	23.142
576.50	23.138
576.00	23.138
575.50	23.154
575.00	23.162
574.50	23.161
574.00	23.165
573.50	23.158
573.00	23.138
572.50	23.132
572.00	23.130
571.50	23.122
571.00	23.131
570.50	23.130
570.00	23.146
569.50	23.145
569.00	23.151
568.50	23.160
568.00	23.194
567.50	23.216
567.00	23.223
566.50	23.220
566.00	23.198
565.50	23.179
565.00	23.172
564.50	23.173
564.00	23.202
563.50	23.219
563.00	23.242
562.50	23.246
562.00	23.246
561.50	23.221
561.00	23.209
560.50	23.193
560.00	23.199
559.50	23.192
559.00	23.192
558.50	23.204
558.00	23.209
557.50	23.218
557.00	23.240
556.50	23.245
556.00	23.265
555.50	23.278
555.00	23.294
554.50	23.303
554.00	23.313
553.50	23.303
553.00	23.316
552.50	23.316
552.00	23.309
551.50	23.315
551.00	23.317
550.50	23.340
550.00	23.346
549.50	23.346
549.00	23.365
548.50	23.360
548.00	23.346
547.50	23.335
547.00	23.336
546.50	23.340
546.00	23.338
545.50	23.349
545.00	23.352
544.50	23.378
544.00	23.414
543.50	23.438
543.00	23.439
