ｻﾝﾌﾟﾙ:	STO_190-1100_600_1_05
ﾌｧｲﾙ名:	STO_190-1100_600_1_05.UDS
分析日時:	'13:29:45, 09/20/2024
ｵﾍﾟﾚｰﾀ:	OB
ｺﾒﾝﾄ:	'

光度計
ﾓﾃﾞﾙ:	U-3900形分光光度計
ｼﾘｱﾙ No.:	'3004-010
ROM Ver.:	2J25300 07

装置条件
測定ﾓｰﾄﾞ:	波長ｽｷｬﾝ
ﾃﾞｰﾀﾓｰﾄﾞ:	%T
開始波長:	1100.00 nm
終了波長:	190.00 nm
ｽｷｬﾝｽﾋﾟｰﾄﾞ:	600 nm/min
ｻﾝﾌﾟﾘﾝｸﾞ間隔:	0.50 nm
初期待ち時間:	0 s
繰り返し周期:	0.0 min
測定回数:	1
測定前ｵｰﾄｾﾞﾛ:	Off
ｽﾘｯﾄ:	1 nm
ﾎﾄﾏﾙ電圧:	自動制御
光源切換ﾓｰﾄﾞ:	自動切換
光源切換波長:	340.00 nm
ﾍﾞｰｽﾗｲﾝ設定:	ﾕｰｻﾞ 1
高分解能測定:	Off
D2ﾗﾝﾌﾟ:	On
WIﾗﾝﾌﾟ:	On
R/S反転:	Off
ｾﾙ長:	10.0 mm

ﾋﾟｰｸ検出
検出方法:	Rectangular
感度:	1
しきい値:	0.0100

ﾋﾟｰｸ
ﾋﾟｰｸ No.	開始 (nm)	ﾋﾟｰｸ (nm)	終了 (nm)	高さ (%T)	ﾊﾞﾚｰ (nm)	ﾊﾞﾚｰ (%T)
1	1100.00	1099.00	1096.50	-495.643	1096.50	521.991
2	1096.50	1090.50	1087.00	-28.714	1087.00	27.792
3	1087.00	1082.00	1076.50	-82.568	1076.50	96.822
4	1076.50	1074.00	1068.00	-7.015	1068.00	125.234
5	1068.00	1066.00	1063.50	56.627	1063.50	102.916
6	1063.50	1062.00	1056.50	53.155	1056.50	79.473
7	1056.50	1055.50	1053.00	62.835	1053.00	85.678
8	1053.00	1048.50	1046.00	66.114	1046.00	72.839
9	1046.00	1044.50	1043.00	67.302	1043.00	72.499
10	1043.00	1040.50	1038.50	66.226	1038.50	73.243
11	1038.50	1035.50	1031.50	66.862	1031.50	70.169
12	1031.50	1030.50	1028.00	67.936	1028.00	72.091
13	1028.00	1022.00	1020.00	69.537	1020.00	70.892
14	1020.00	1017.00	1013.50	68.612	1013.50	70.260
15	1013.50	1009.50	1006.50	68.665	1006.50	69.771
16	1006.50	1003.50	1000.50	68.579	1000.50	69.866
17	1000.50	996.50	993.00	68.606	993.00	70.330
18	993.00	986.00	984.50	69.023	984.50	69.800
19	984.50	979.00	976.50	68.917	976.50	69.803
20	976.50	972.00	965.00	68.416	965.00	69.811
21	965.00	957.50	955.50	68.334	955.50	69.530
22	955.50	953.50	951.00	68.252	951.00	69.417
23	951.00	949.00	946.00	68.421	946.00	69.675
24	946.00	943.50	940.00	68.340	940.00	69.847
25	940.00	936.00	933.00	68.750	933.00	69.619
26	933.00	930.50	926.00	68.360	926.00	69.064
27	926.00	924.00	920.00	67.927	920.00	69.363
28	920.00	914.50	912.00	67.770	912.00	69.008
29	912.00	910.00	908.50	68.101	908.50	68.877
30	908.50	906.50	904.00	67.973	904.00	69.377
31	904.00	899.50	893.50	68.045	893.50	69.285
32	893.50	890.50	887.50	68.274	887.50	69.635
33	887.50	885.50	882.50	68.448	882.50	69.517
34	882.50	875.50	872.50	68.163	872.50	69.298
35	872.50	870.50	865.50	68.292	865.50	69.234
36	865.50	863.50	861.50	68.032	861.50	68.764
37	861.50	859.50	854.50	67.748	854.50	68.649
38	854.50	852.50	847.50	67.852	847.50	68.855
39	847.50	846.00	843.50	67.930	843.50	68.939
40	843.50	837.50	830.00	67.229	830.00	68.967
41	830.00	820.50	818.00	67.840	818.00	68.740
42	818.00	815.50	809.50	67.927	809.50	68.690
43	809.50	802.50	797.50	68.161	797.50	68.635
44	797.50	794.50	782.50	68.175	782.50	68.613
45	782.50	780.00	775.50	68.212	775.50	68.518
46	775.50	765.50	764.00	68.153	764.00	68.377
47	764.00	761.50	759.00	68.176	759.00	68.408
48	759.00	756.50	750.50	68.165	750.50	68.443
49	750.50	748.00	746.00	68.183	746.00	68.514
50	746.00	743.00	741.00	67.928	741.00	68.288
51	741.00	738.50	737.00	68.000	737.00	68.221
52	737.00	732.50	730.00	68.059	730.00	68.277
53	730.00	727.00	724.00	67.897	724.00	68.193
54	724.00	722.00	721.00	68.047	721.00	68.195
55	721.00	713.00	710.50	67.902	710.50	68.184
56	710.50	707.50	703.50	67.883	703.50	68.042
57	703.50	699.50	697.50	67.725	697.50	67.882
58	697.50	695.50	693.00	67.788	693.00	68.048
59	693.00	687.00	682.00	67.814	682.00	68.025
60	682.00	675.50	672.50	67.585	672.50	67.808
61	672.50	670.00	668.00	67.562	668.00	67.834
62	668.00	665.50	663.50	67.659	663.50	67.795
63	663.50	661.50	658.00	67.658	658.00	67.803
64	658.00	655.00	653.50	67.506	653.50	67.675
65	653.50	651.50	649.00	67.539	649.00	67.824
66	649.00	646.50	643.50	67.585	643.50	67.781
67	643.50	638.00	632.00	67.374	632.00	67.606
68	632.00	628.50	623.50	67.327	623.50	67.558
69	623.50	620.00	618.00	67.362	618.00	67.469
70	618.00	616.00	613.50	67.368	613.50	67.420
71	613.50	611.00	608.00	67.233	608.00	67.354
72	608.00	606.00	603.00	67.116	603.00	67.248
73	603.00	602.00	600.00	67.187	600.00	67.316
74	600.00	595.50	594.00	67.010	594.00	67.166
75	594.00	592.00	589.50	67.069	589.50	67.224
76	589.50	579.50	577.00	66.937	577.00	67.057
77	577.00	573.00	567.00	66.871	567.00	66.953
78	567.00	565.00	561.50	66.715	561.50	66.862
79	561.50	558.00	556.00	66.724	556.00	66.902
80	556.00	548.50	545.50	66.588	545.50	66.709
81	545.50	543.50	541.00	66.516	541.00	66.733
82	541.00	536.00	533.50	66.421	533.50	66.504
83	533.50	531.00	529.00	66.269	529.00	66.368
84	529.00	527.50	524.50	66.282	524.50	66.386
85	524.50	514.50	512.00	66.030	512.00	66.138
86	512.00	507.00	505.00	65.983	505.00	66.094
87	505.00	500.00	498.50	65.666	498.50	65.822
88	498.50	492.00	489.50	65.559	489.50	65.688
89	489.50	482.00	478.50	65.278	478.50	65.375
90	478.50	469.00	467.00	64.976	467.00	65.099
91	467.00	452.50	449.50	64.463	449.50	64.650
92	449.50	443.50	440.50	64.106	440.50	64.244
93	440.50	377.50	363.50	-0.032	363.50	0.018
94	363.50	358.00	344.50	0.004	344.50	0.036
95	344.50	338.00	328.50	-0.009	328.50	0.002
96	328.50	320.50	212.50	-0.013	212.50	0.022
97	212.50	210.50	190.00	0.012	190.00	0.310

ﾃﾞｰﾀﾘｽﾄ
nm	%T
1100.00	-196.031
1099.50	-447.257
1099.00	-495.643
1098.50	-401.177
1098.00	-152.356
1097.50	65.117
1097.00	340.457
1096.50	521.991
1096.00	470.068
1095.50	150.263
1095.00	164.574
1094.50	46.806
1094.00	-5.609
1093.50	120.887
1093.00	38.267
1092.50	-11.991
1092.00	-5.991
1091.50	-10.888
1091.00	33.546
1090.50	-28.714
1090.00	-18.970
1089.50	-19.518
1089.00	-15.339
1088.50	-15.312
1088.00	-13.312
1087.50	22.630
1087.00	27.792
1086.50	19.605
1086.00	-8.187
1085.50	-49.434
1085.00	-57.533
1084.50	-12.666
1084.00	8.902
1083.50	-14.494
1083.00	-26.767
1082.50	-60.502
1082.00	-82.568
1081.50	-78.789
1081.00	-75.508
1080.50	-36.529
1080.00	-4.554
1079.50	33.107
1079.00	64.667
1078.50	61.359
1078.00	10.770
1077.50	-1.990
1077.00	68.342
1076.50	96.822
1076.00	88.837
1075.50	44.704
1075.00	3.418
1074.50	7.252
1074.00	-7.015
1073.50	19.257
1073.00	38.115
1072.50	60.967
1072.00	63.195
1071.50	78.524
1071.00	63.832
1070.50	6.200
1070.00	39.663
1069.50	69.965
1069.00	93.354
1068.50	113.131
1068.00	125.234
1067.50	110.617
1067.00	72.006
1066.50	57.320
1066.00	56.627
1065.50	70.024
1065.00	75.724
1064.50	85.855
1064.00	102.709
1063.50	102.916
1063.00	84.110
1062.50	64.117
1062.00	53.155
1061.50	61.020
1061.00	61.680
1060.50	55.212
1060.00	62.438
1059.50	61.417
1059.00	68.382
1058.50	74.257
1058.00	78.071
1057.50	73.186
1057.00	76.067
1056.50	79.473
1056.00	68.051
1055.50	62.835
1055.00	68.415
1054.50	82.127
1054.00	84.929
1053.50	85.343
1053.00	85.678
1052.50	78.728
1052.00	76.034
1051.50	74.282
1051.00	76.496
1050.50	74.236
1050.00	74.455
1049.50	71.506
1049.00	67.527
1048.50	66.114
1048.00	66.383
1047.50	67.310
1047.00	68.177
1046.50	70.294
1046.00	72.839
1045.50	71.000
1045.00	69.780
1044.50	67.302
1044.00	67.802
1043.50	69.526
1043.00	72.499
1042.50	72.206
1042.00	70.932
1041.50	69.703
1041.00	67.624
1040.50	66.226
1040.00	67.055
1039.50	67.716
1039.00	70.865
1038.50	73.243
1038.00	72.567
1037.50	72.010
1037.00	71.795
1036.50	70.593
1036.00	69.338
1035.50	66.862
1035.00	66.919
1034.50	68.049
1034.00	68.546
1033.50	69.378
1033.00	70.010
1032.50	70.112
1032.00	70.151
1031.50	70.169
1031.00	69.190
1030.50	67.936
1030.00	68.175
1029.50	69.128
1029.00	70.350
1028.50	71.183
1028.00	72.091
1027.50	71.982
1027.00	71.905
1026.50	70.798
1026.00	69.820
1025.50	69.960
1025.00	69.843
1024.50	70.042
1024.00	70.189
1023.50	70.336
1023.00	70.477
1022.50	70.028
1022.00	69.537
1021.50	69.771
1021.00	70.113
1020.50	70.438
1020.00	70.892
1019.50	70.625
1019.00	70.643
1018.50	70.284
1018.00	70.356
1017.50	69.017
1017.00	68.612
1016.50	68.732
1016.00	69.047
1015.50	69.224
1015.00	69.550
1014.50	69.734
1014.00	70.130
1013.50	70.260
1013.00	70.019
1012.50	69.372
1012.00	69.281
1011.50	68.901
1011.00	69.285
1010.50	68.707
1010.00	68.866
1009.50	68.665
1009.00	68.865
1008.50	68.888
1008.00	69.227
1007.50	69.299
1007.00	69.677
1006.50	69.771
1006.00	69.628
1005.50	69.591
1005.00	69.173
1004.50	68.940
1004.00	68.842
1003.50	68.579
1003.00	68.682
1002.50	68.732
1002.00	69.147
1001.50	69.531
1001.00	69.591
1000.50	69.866
1000.00	69.749
999.50	69.567
999.00	69.331
998.50	69.375
998.00	69.101
997.50	68.752
997.00	68.904
996.50	68.606
996.00	68.840
995.50	69.070
995.00	69.400
994.50	69.858
994.00	70.082
993.50	70.230
993.00	70.330
992.50	70.269
992.00	70.084
991.50	70.029
991.00	69.928
990.50	69.552
990.00	69.781
989.50	69.469
989.00	69.530
988.50	69.455
988.00	69.098
987.50	69.191
987.00	69.280
986.50	69.248
986.00	69.023
985.50	69.583
985.00	69.630
984.50	69.800
984.00	69.571
983.50	69.353
983.00	69.265
982.50	69.196
982.00	69.223
981.50	69.314
981.00	68.974
980.50	69.122
980.00	69.239
979.50	69.316
979.00	68.917
978.50	69.215
978.00	69.337
977.50	69.503
977.00	69.589
976.50	69.803
976.00	69.718
975.50	69.770
975.00	69.515
974.50	69.473
974.00	69.095
973.50	68.938
973.00	68.733
972.50	68.642
972.00	68.416
971.50	68.615
971.00	68.989
970.50	68.892
970.00	69.122
969.50	69.059
969.00	69.093
968.50	68.683
968.00	68.529
967.50	69.036
967.00	69.388
966.50	69.403
966.00	69.528
965.50	69.745
965.00	69.811
964.50	69.756
964.00	69.752
963.50	69.366
963.00	69.421
962.50	69.326
962.00	69.435
961.50	68.792
961.00	68.601
960.50	69.056
960.00	69.557
959.50	69.474
959.00	69.234
958.50	68.733
958.00	68.612
957.50	68.334
957.00	68.550
956.50	68.704
956.00	69.184
955.50	69.530
955.00	69.413
954.50	68.884
954.00	68.404
953.50	68.252
953.00	68.261
952.50	68.503
952.00	68.933
951.50	69.048
951.00	69.417
950.50	69.043
950.00	68.969
949.50	68.655
949.00	68.421
948.50	68.430
948.00	68.540
947.50	68.787
947.00	69.177
946.50	69.549
946.00	69.675
945.50	69.531
945.00	69.282
944.50	68.782
944.00	68.668
943.50	68.340
943.00	68.625
942.50	69.059
942.00	69.281
941.50	69.409
941.00	69.616
940.50	69.699
940.00	69.847
939.50	69.508
939.00	69.564
938.50	69.297
938.00	69.079
937.50	68.834
937.00	68.838
936.50	68.890
936.00	68.750
935.50	68.856
935.00	68.966
934.50	68.967
934.00	69.143
933.50	69.262
933.00	69.619
932.50	68.965
932.00	68.776
931.50	68.604
931.00	68.460
930.50	68.360
930.00	68.616
929.50	68.819
929.00	68.944
928.50	68.978
928.00	68.862
927.50	68.829
927.00	68.764
926.50	68.706
926.00	69.064
925.50	68.637
925.00	68.415
924.50	68.169
924.00	67.927
923.50	67.984
923.00	68.193
922.50	68.148
922.00	68.383
921.50	68.568
921.00	68.851
920.50	69.231
920.00	69.363
919.50	69.238
919.00	69.287
918.50	68.762
918.00	68.576
917.50	68.430
917.00	68.229
916.50	68.274
916.00	68.267
915.50	68.254
915.00	68.043
914.50	67.770
914.00	68.147
913.50	68.367
913.00	68.646
912.50	68.801
912.00	69.008
911.50	68.695
911.00	68.373
910.50	68.189
910.00	68.101
909.50	68.526
909.00	68.703
908.50	68.877
908.00	68.649
907.50	68.308
907.00	68.224
906.50	67.973
906.00	68.238
905.50	68.325
905.00	68.789
904.50	69.209
904.00	69.377
903.50	69.159
903.00	68.998
902.50	68.856
902.00	68.889
901.50	68.821
901.00	68.555
900.50	68.475
900.00	68.094
899.50	68.045
899.00	68.352
898.50	68.403
898.00	68.663
897.50	68.931
897.00	69.208
896.50	68.901
896.00	68.841
895.50	68.653
895.00	68.708
894.50	68.753
894.00	68.928
893.50	69.285
893.00	69.069
892.50	69.023
892.00	68.957
891.50	68.531
891.00	68.290
890.50	68.274
890.00	68.473
889.50	68.407
889.00	68.644
888.50	68.974
888.00	69.460
887.50	69.635
887.00	69.444
886.50	69.278
886.00	68.798
885.50	68.448
885.00	68.499
884.50	68.472
884.00	68.757
883.50	69.083
883.00	69.245
882.50	69.517
882.00	69.509
881.50	69.094
881.00	68.823
880.50	68.640
880.00	68.684
879.50	68.862
879.00	68.671
878.50	68.762
878.00	68.674
877.50	68.595
877.00	68.658
876.50	68.390
876.00	68.237
875.50	68.163
875.00	68.423
874.50	68.833
874.00	68.888
873.50	69.090
873.00	69.074
872.50	69.298
872.00	68.915
871.50	68.848
871.00	68.485
870.50	68.292
870.00	68.638
869.50	68.451
869.00	68.700
868.50	68.722
868.00	68.770
867.50	68.978
867.00	68.878
866.50	69.047
866.00	69.064
865.50	69.234
865.00	68.952
864.50	68.673
864.00	68.161
863.50	68.032
863.00	68.238
862.50	68.335
862.00	68.571
861.50	68.764
861.00	68.629
860.50	68.378
860.00	68.041
859.50	67.748
859.00	68.039
858.50	68.372
858.00	68.412
857.50	68.485
857.00	68.451
856.50	68.299
856.00	68.160
855.50	68.428
855.00	68.571
854.50	68.649
854.00	68.579
853.50	68.194
853.00	68.182
852.50	67.852
852.00	67.897
851.50	67.951
851.00	67.871
850.50	68.099
850.00	68.407
849.50	68.613
849.00	68.706
848.50	68.763
848.00	68.830
847.50	68.855
847.00	68.529
846.50	68.040
846.00	67.930
845.50	68.110
845.00	68.499
844.50	68.722
844.00	68.909
843.50	68.939
843.00	68.739
842.50	68.740
842.00	68.513
841.50	68.264
841.00	68.270
840.50	68.190
840.00	67.987
839.50	67.728
839.00	67.471
838.50	67.420
838.00	67.342
837.50	67.229
837.00	67.533
836.50	67.965
836.00	68.264
835.50	68.553
835.00	68.607
834.50	68.503
834.00	68.609
833.50	68.612
833.00	68.426
832.50	68.312
832.00	68.432
831.50	68.657
831.00	68.890
830.50	68.943
830.00	68.967
829.50	68.870
829.00	68.810
828.50	68.824
828.00	68.852
827.50	68.642
827.00	68.579
826.50	68.675
826.00	68.565
825.50	68.467
825.00	68.199
824.50	68.116
824.00	68.190
823.50	68.244
823.00	68.238
822.50	68.198
822.00	68.215
821.50	68.104
821.00	68.019
820.50	67.840
820.00	67.870
819.50	67.978
819.00	68.287
818.50	68.559
818.00	68.740
817.50	68.700
817.00	68.584
816.50	68.512
816.00	68.054
815.50	67.927
815.00	67.965
814.50	68.076
814.00	68.160
813.50	68.186
813.00	68.303
812.50	68.298
812.00	68.286
811.50	68.262
811.00	68.411
810.50	68.547
810.00	68.596
809.50	68.690
809.00	68.631
808.50	68.630
808.00	68.584
807.50	68.568
807.00	68.493
806.50	68.443
806.00	68.484
805.50	68.550
805.00	68.559
804.50	68.431
804.00	68.223
803.50	68.168
803.00	68.248
802.50	68.161
802.00	68.229
801.50	68.367
801.00	68.447
800.50	68.542
800.00	68.484
799.50	68.359
799.00	68.428
798.50	68.392
798.00	68.630
797.50	68.635
797.00	68.483
796.50	68.353
796.00	68.313
795.50	68.225
795.00	68.192
794.50	68.175
794.00	68.234
793.50	68.443
793.00	68.479
792.50	68.310
792.00	68.228
791.50	68.159
791.00	68.301
790.50	68.304
790.00	68.292
789.50	68.398
789.00	68.376
788.50	68.388
788.00	68.417
787.50	68.317
787.00	68.344
786.50	68.449
786.00	68.532
785.50	68.554
785.00	68.455
784.50	68.490
784.00	68.542
783.50	68.584
783.00	68.591
782.50	68.613
782.00	68.410
781.50	68.342
781.00	68.378
780.50	68.297
780.00	68.212
779.50	68.235
779.00	68.283
778.50	68.354
778.00	68.331
777.50	68.385
777.00	68.347
776.50	68.415
776.00	68.461
775.50	68.518
775.00	68.350
774.50	68.310
774.00	68.310
773.50	68.280
773.00	68.261
772.50	68.288
772.00	68.361
771.50	68.353
771.00	68.291
770.50	68.240
770.00	68.176
769.50	68.166
769.00	68.178
768.50	68.222
768.00	68.241
767.50	68.220
767.00	68.231
766.50	68.187
766.00	68.173
765.50	68.153
765.00	68.207
764.50	68.247
764.00	68.377
763.50	68.281
763.00	68.302
762.50	68.231
762.00	68.222
761.50	68.176
761.00	68.193
760.50	68.203
760.00	68.310
759.50	68.331
759.00	68.408
758.50	68.350
758.00	68.333
757.50	68.303
757.00	68.327
756.50	68.165
756.00	68.168
755.50	68.183
755.00	68.224
754.50	68.253
754.00	68.325
753.50	68.353
753.00	68.368
752.50	68.388
752.00	68.423
751.50	68.395
751.00	68.442
750.50	68.443
750.00	68.373
749.50	68.281
749.00	68.202
748.50	68.234
748.00	68.183
747.50	68.209
747.00	68.358
746.50	68.482
746.00	68.514
745.50	68.492
745.00	68.375
744.50	68.275
744.00	68.131
743.50	67.987
743.00	67.928
742.50	68.022
742.00	68.121
741.50	68.219
741.00	68.288
740.50	68.244
740.00	68.196
739.50	68.157
739.00	68.081
738.50	68.000
738.00	68.018
737.50	68.166
737.00	68.221
736.50	68.217
736.00	68.180
735.50	68.196
735.00	68.207
734.50	68.158
734.00	68.136
733.50	68.110
733.00	68.079
732.50	68.059
732.00	68.105
731.50	68.083
731.00	68.116
730.50	68.215
730.00	68.277
729.50	68.263
729.00	68.225
728.50	68.185
728.00	68.067
727.50	67.980
727.00	67.897
726.50	67.961
726.00	68.047
725.50	68.105
725.00	68.185
724.50	68.179
724.00	68.193
723.50	68.163
723.00	68.122
722.50	68.051
722.00	68.047
721.50	68.161
721.00	68.195
720.50	68.183
720.00	68.132
719.50	68.120
719.00	68.092
718.50	68.064
718.00	67.982
717.50	67.991
717.00	68.090
716.50	68.109
716.00	68.116
715.50	68.091
715.00	67.974
714.50	67.976
714.00	67.971
713.50	67.912
713.00	67.902
712.50	67.960
712.00	68.028
711.50	68.130
711.00	68.142
710.50	68.184
710.00	68.175
709.50	68.099
709.00	68.018
708.50	67.972
708.00	67.910
707.50	67.883
707.00	67.950
706.50	67.984
706.00	67.987
705.50	68.001
705.00	68.006
704.50	68.011
704.00	68.005
703.50	68.042
703.00	68.001
702.50	67.973
702.00	67.959
701.50	67.959
701.00	67.892
700.50	67.797
700.00	67.791
699.50	67.725
699.00	67.745
698.50	67.829
698.00	67.856
697.50	67.882
697.00	67.870
696.50	67.860
696.00	67.838
695.50	67.788
695.00	67.795
694.50	67.876
694.00	67.904
693.50	68.012
693.00	68.048
692.50	67.969
692.00	67.907
691.50	67.907
691.00	67.849
690.50	67.854
690.00	67.835
689.50	67.808
689.00	67.892
688.50	67.884
688.00	67.870
687.50	67.849
687.00	67.814
686.50	67.867
686.00	67.833
685.50	67.818
685.00	67.848
684.50	67.889
684.00	67.944
683.50	67.954
683.00	67.971
682.50	67.957
682.00	68.025
681.50	67.982
681.00	67.910
680.50	67.833
680.00	67.802
679.50	67.834
679.00	67.815
678.50	67.790
678.00	67.789
677.50	67.793
677.00	67.819
676.50	67.765
676.00	67.691
675.50	67.585
675.00	67.623
674.50	67.652
674.00	67.670
673.50	67.728
673.00	67.796
672.50	67.808
672.00	67.805
671.50	67.707
671.00	67.611
670.50	67.575
670.00	67.562
669.50	67.660
669.00	67.717
668.50	67.768
668.00	67.834
667.50	67.817
667.00	67.741
666.50	67.680
666.00	67.673
665.50	67.659
665.00	67.708
664.50	67.704
664.00	67.782
663.50	67.795
663.00	67.791
662.50	67.765
662.00	67.664
661.50	67.658
661.00	67.662
660.50	67.674
660.00	67.677
659.50	67.710
659.00	67.796
658.50	67.801
658.00	67.803
657.50	67.727
657.00	67.697
656.50	67.628
656.00	67.577
655.50	67.518
655.00	67.506
654.50	67.597
654.00	67.638
653.50	67.675
653.00	67.655
652.50	67.657
652.00	67.594
651.50	67.539
651.00	67.557
650.50	67.596
650.00	67.684
649.50	67.786
649.00	67.824
648.50	67.786
648.00	67.729
647.50	67.684
647.00	67.619
646.50	67.585
646.00	67.587
645.50	67.658
645.00	67.686
644.50	67.732
644.00	67.771
643.50	67.781
643.00	67.764
642.50	67.724
642.00	67.682
641.50	67.628
641.00	67.571
640.50	67.497
640.00	67.484
639.50	67.479
639.00	67.448
638.50	67.397
638.00	67.374
637.50	67.394
637.00	67.466
636.50	67.495
636.00	67.516
635.50	67.492
635.00	67.512
634.50	67.481
634.00	67.467
633.50	67.452
633.00	67.490
632.50	67.569
632.00	67.606
631.50	67.576
631.00	67.491
630.50	67.417
630.00	67.377
629.50	67.347
629.00	67.333
628.50	67.327
628.00	67.403
627.50	67.413
627.00	67.421
626.50	67.419
626.00	67.402
625.50	67.455
625.00	67.492
624.50	67.509
624.00	67.521
623.50	67.558
623.00	67.556
622.50	67.540
622.00	67.479
621.50	67.425
621.00	67.390
620.50	67.387
620.00	67.362
619.50	67.369
619.00	67.378
618.50	67.437
618.00	67.469
617.50	67.469
617.00	67.399
616.50	67.380
616.00	67.368
615.50	67.369
615.00	67.384
614.50	67.390
614.00	67.396
613.50	67.420
613.00	67.388
612.50	67.371
612.00	67.305
611.50	67.240
611.00	67.233
610.50	67.260
610.00	67.247
609.50	67.274
609.00	67.296
608.50	67.345
608.00	67.354
607.50	67.347
607.00	67.271
606.50	67.169
606.00	67.116
605.50	67.175
605.00	67.202
604.50	67.232
604.00	67.246
603.50	67.245
603.00	67.248
602.50	67.188
602.00	67.187
601.50	67.226
601.00	67.220
600.50	67.269
600.00	67.316
599.50	67.293
599.00	67.255
598.50	67.289
598.00	67.239
597.50	67.194
597.00	67.158
596.50	67.117
596.00	67.094
595.50	67.010
595.00	67.082
594.50	67.142
594.00	67.166
593.50	67.165
593.00	67.161
592.50	67.096
592.00	67.069
591.50	67.091
591.00	67.114
590.50	67.155
590.00	67.207
589.50	67.224
589.00	67.214
588.50	67.189
588.00	67.215
587.50	67.184
587.00	67.118
586.50	67.110
586.00	67.147
585.50	67.134
585.00	67.119
584.50	67.040
584.00	67.001
583.50	67.028
583.00	67.033
582.50	67.007
582.00	66.980
581.50	66.939
581.00	66.986
580.50	67.013
580.00	66.967
579.50	66.937
579.00	66.946
578.50	66.971
578.00	67.036
577.50	67.025
577.00	67.057
576.50	67.054
576.00	67.048
575.50	67.019
575.00	67.003
574.50	66.938
574.00	66.911
