ｻﾝﾌﾟﾙ:	Ag_190-1100_600_1_05_R
ﾌｧｲﾙ名:	Ag_190-1100_600_1_05_R.UDS
分析日時:	'14:04:33, 09/20/2024
ｵﾍﾟﾚｰﾀ:	OB
ｺﾒﾝﾄ:	'

光度計
ﾓﾃﾞﾙ:	U-3900形分光光度計
ｼﾘｱﾙ No.:	'3004-010
ROM Ver.:	2J25300 07

装置条件
測定ﾓｰﾄﾞ:	波長ｽｷｬﾝ
ﾃﾞｰﾀﾓｰﾄﾞ:	%T
開始波長:	1100.00 nm
終了波長:	190.00 nm
ｽｷｬﾝｽﾋﾟｰﾄﾞ:	600 nm/min
ｻﾝﾌﾟﾘﾝｸﾞ間隔:	0.50 nm
初期待ち時間:	0 s
繰り返し周期:	0.0 min
測定回数:	1
測定前ｵｰﾄｾﾞﾛ:	Off
ｽﾘｯﾄ:	1 nm
ﾎﾄﾏﾙ電圧:	自動制御
光源切換ﾓｰﾄﾞ:	自動切換
光源切換波長:	340.00 nm
ﾍﾞｰｽﾗｲﾝ設定:	ﾕｰｻﾞ 1
高分解能測定:	Off
D2ﾗﾝﾌﾟ:	On
WIﾗﾝﾌﾟ:	On
R/S反転:	Off
ｾﾙ長:	10.0 mm

ﾋﾟｰｸ検出
検出方法:	Rectangular
感度:	1
しきい値:	0.0100

ﾋﾟｰｸ
ﾋﾟｰｸ No.	開始 (nm)	ﾋﾟｰｸ (nm)	終了 (nm)	高さ (%T)	ﾊﾞﾚｰ (nm)	ﾊﾞﾚｰ (%T)
1	1100.00	1099.00	1096.00	23.237	1096.00	419.845
2	1096.00	1090.50	1089.00	158.364	1089.00	272.653
3	1089.00	1083.50	1078.00	51.600	1078.00	189.200
4	1078.00	1053.00	1046.50	70.557	1046.50	78.384
5	1046.50	1043.50	1039.50	74.408	1039.50	76.226
6	1039.50	1034.50	1023.50	72.825	1023.50	82.929
7	1023.50	1019.50	1016.50	75.186	1016.50	77.930
8	1016.50	1014.00	1009.50	76.068	1009.50	77.064
9	1009.50	1004.50	994.00	75.762	994.00	77.768
10	994.00	991.00	988.50	76.422	988.50	78.234
11	988.50	982.00	976.50	77.279	976.50	78.019
12	976.50	971.00	968.50	76.863	968.50	77.750
13	968.50	962.00	958.50	76.986	958.50	78.451
14	958.50	956.50	954.00	77.429	954.00	79.674
15	954.00	950.50	947.00	77.280	947.00	77.986
16	947.00	943.50	940.00	77.253	940.00	79.435
17	940.00	934.00	931.00	77.802	931.00	79.638
18	931.00	929.00	927.50	78.522	927.50	79.150
19	927.50	925.00	919.50	78.443	919.50	79.797
20	919.50	917.00	913.00	78.216	913.00	80.155
21	913.00	911.00	907.00	78.653	907.00	80.626
22	907.00	904.50	900.50	78.943	900.50	80.745
23	900.50	894.50	891.50	79.300	891.50	81.522
24	891.50	889.00	883.00	79.551	883.00	81.191
25	883.00	880.50	878.50	79.781	878.50	81.796
26	878.50	875.00	871.50	80.359	871.50	82.318
27	871.50	868.50	866.00	78.670	866.00	81.687
28	866.00	863.50	861.50	80.462	861.50	82.497
29	861.50	858.50	852.00	80.072	852.00	82.781
30	852.00	848.00	845.00	81.779	845.00	83.187
31	845.00	839.50	833.50	81.779	833.50	83.495
32	833.50	832.50	824.00	82.960	824.00	84.076
33	824.00	821.50	815.50	83.134	815.50	84.821
34	815.50	813.00	800.50	84.041	800.50	85.735
35	800.50	798.50	791.00	85.107	791.00	86.277
36	791.00	787.50	785.50	85.845	785.50	86.394
37	785.50	783.00	780.50	86.005	780.50	86.716
38	780.50	777.50	775.50	86.182	775.50	86.938
39	775.50	769.50	767.00	86.578	767.00	86.983
40	767.00	762.50	758.00	86.598	758.00	87.622
41	758.00	755.00	744.00	86.753	744.00	88.977
42	744.00	738.00	733.50	87.945	733.50	88.289
43	733.50	731.50	728.00	88.048	728.00	88.497
44	728.00	721.50	718.00	88.068	718.00	88.541
45	718.00	715.00	713.00	88.101	713.00	88.496
46	713.00	708.50	706.50	88.357	706.50	88.568
47	706.50	703.00	696.50	88.137	696.50	88.535
48	696.50	694.00	691.50	88.447	691.50	88.751
49	691.50	689.50	686.50	88.526	686.50	88.684
50	686.50	683.50	681.00	88.417	681.00	88.555
51	681.00	677.50	668.00	88.298	668.00	88.681
52	668.00	665.50	658.00	88.456	658.00	88.666
53	658.00	654.50	651.00	88.462	651.00	88.714
54	651.00	644.50	640.50	88.513	640.50	88.721
55	640.50	637.50	634.00	88.537	634.00	88.641
56	634.00	630.50	627.50	88.524	627.50	88.592
57	627.50	623.50	617.00	88.425	617.00	88.664
58	617.00	613.00	611.00	88.412	611.00	88.580
59	611.00	608.50	606.50	88.463	606.50	88.589
60	606.50	605.50	602.00	88.533	602.00	88.621
61	602.00	598.50	589.50	88.213	589.50	88.561
62	589.50	588.00	584.50	88.464	584.50	88.725
63	584.50	580.00	577.00	88.121	577.00	88.340
64	577.00	564.50	562.50	87.929	562.50	88.014
65	562.50	560.50	557.00	87.874	557.00	88.012
66	557.00	554.50	551.00	87.785	551.00	87.964
67	551.00	540.00	533.50	87.581	533.50	87.826
68	533.50	531.50	513.00	87.620	513.00	88.447
69	513.00	502.00	500.00	87.912	500.00	88.068
70	500.00	497.00	495.00	87.849	495.00	88.023
71	495.00	493.50	490.50	87.882	490.50	88.053
72	490.50	487.50	481.50	87.895	481.50	88.163
73	481.50	474.00	471.50	87.655	471.50	87.731
74	471.50	464.00	461.50	87.243	461.50	87.363
75	461.50	405.50	380.00	69.852	380.00	71.424
76	380.00	377.50	367.50	71.256	367.50	72.138
77	367.50	341.50	338.50	67.154	338.50	69.891
78	338.50	307.00	270.00	2.656	270.00	11.142
79	270.00	237.50	206.50	0.703	206.50	33.479

ﾃﾞｰﾀﾘｽﾄ
nm	%T
1100.00	80.366
1099.50	25.945
1099.00	23.237
1098.50	65.659
1098.00	130.041
1097.50	225.453
1097.00	339.409
1096.50	401.768
1096.00	419.845
1095.50	355.421
1095.00	291.023
1094.50	223.875
1094.00	187.962
1093.50	190.047
1093.00	206.632
1092.50	172.827
1092.00	215.747
1091.50	170.257
1091.00	158.728
1090.50	158.364
1090.00	202.958
1089.50	235.441
1089.00	272.653
1088.50	240.860
1088.00	201.480
1087.50	134.672
1087.00	101.482
1086.50	89.068
1086.00	81.000
1085.50	60.925
1085.00	114.912
1084.50	54.983
1084.00	55.622
1083.50	51.600
1083.00	61.395
1082.50	87.144
1082.00	70.370
1081.50	90.663
1081.00	106.667
1080.50	117.295
1080.00	130.322
1079.50	155.657
1079.00	168.625
1078.50	170.063
1078.00	189.200
1077.50	151.691
1077.00	123.794
1076.50	114.982
1076.00	105.913
1075.50	143.344
1075.00	122.718
1074.50	124.638
1074.00	115.021
1073.50	109.825
1073.00	108.387
1072.50	116.967
1072.00	113.625
1071.50	98.822
1071.00	104.755
1070.50	94.054
1070.00	88.271
1069.50	88.878
1069.00	78.233
1068.50	84.268
1068.00	85.067
1067.50	87.152
1067.00	82.680
1066.50	85.386
1066.00	83.552
1065.50	83.518
1065.00	85.878
1064.50	82.016
1064.00	80.302
1063.50	79.733
1063.00	87.327
1062.50	85.468
1062.00	83.200
1061.50	77.406
1061.00	77.137
1060.50	77.322
1060.00	79.212
1059.50	82.430
1059.00	82.438
1058.50	81.110
1058.00	78.701
1057.50	76.795
1057.00	77.083
1056.50	75.070
1056.00	78.409
1055.50	80.860
1055.00	84.276
1054.50	79.763
1054.00	74.091
1053.50	71.026
1053.00	70.557
1052.50	70.654
1052.00	72.391
1051.50	73.824
1051.00	74.428
1050.50	73.639
1050.00	75.547
1049.50	73.951
1049.00	73.961
1048.50	73.315
1048.00	77.048
1047.50	78.022
1047.00	77.644
1046.50	78.384
1046.00	77.211
1045.50	76.054
1045.00	76.456
1044.50	75.573
1044.00	75.459
1043.50	74.408
1043.00	75.430
1042.50	75.499
1042.00	75.261
1041.50	74.473
1041.00	74.716
1040.50	75.374
1040.00	75.470
1039.50	76.226
1039.00	76.014
1038.50	75.283
1038.00	75.452
1037.50	74.818
1037.00	74.163
1036.50	73.403
1036.00	73.757
1035.50	74.056
1035.00	73.460
1034.50	72.825
1034.00	73.352
1033.50	74.087
1033.00	74.040
1032.50	74.351
1032.00	74.859
1031.50	74.675
1031.00	75.021
1030.50	75.519
1030.00	76.249
1029.50	77.200
1029.00	78.603
1028.50	80.127
1028.00	80.136
1027.50	80.079
1027.00	80.562
1026.50	80.749
1026.00	81.615
1025.50	82.299
1025.00	82.804
1024.50	82.719
1024.00	82.775
1023.50	82.929
1023.00	82.269
1022.50	81.452
1022.00	80.472
1021.50	79.279
1021.00	77.393
1020.50	76.766
1020.00	75.828
1019.50	75.186
1019.00	75.384
1018.50	76.094
1018.00	76.631
1017.50	77.181
1017.00	77.684
1016.50	77.930
1016.00	77.386
1015.50	76.979
1015.00	76.956
1014.50	76.754
1014.00	76.068
1013.50	76.223
1013.00	76.131
1012.50	76.402
1012.00	76.941
1011.50	76.989
1011.00	76.981
1010.50	76.988
1010.00	76.816
1009.50	77.064
1009.00	76.582
1008.50	76.547
1008.00	76.512
1007.50	76.990
1007.00	77.243
1006.50	76.871
1006.00	76.421
1005.50	76.312
1005.00	76.175
1004.50	75.762
1004.00	75.782
1003.50	76.443
1003.00	76.580
1002.50	76.991
1002.00	76.810
1001.50	76.834
1001.00	76.444
1000.50	76.500
1000.00	76.769
999.50	77.118
999.00	77.461
998.50	77.564
998.00	77.737
997.50	77.602
997.00	77.461
996.50	77.625
996.00	77.551
995.50	77.539
995.00	77.554
994.50	77.710
994.00	77.768
993.50	77.551
993.00	77.271
992.50	76.662
992.00	76.835
991.50	76.479
991.00	76.422
990.50	76.598
990.00	76.996
989.50	77.474
989.00	78.055
988.50	78.234
988.00	78.035
987.50	77.728
987.00	77.795
986.50	77.507
986.00	77.517
985.50	77.288
985.00	77.550
984.50	77.653
984.00	77.745
983.50	77.675
983.00	77.317
982.50	77.330
982.00	77.279
981.50	77.479
981.00	77.508
980.50	77.554
980.00	77.905
979.50	77.777
979.00	77.694
978.50	77.813
978.00	77.625
977.50	77.645
977.00	77.798
976.50	78.019
976.00	77.882
975.50	77.748
975.00	77.367
974.50	77.416
974.00	77.610
973.50	77.749
973.00	77.631
972.50	77.503
972.00	77.317
971.50	77.110
971.00	76.863
970.50	77.131
970.00	76.895
969.50	77.216
969.00	77.412
968.50	77.750
968.00	77.644
967.50	77.407
967.00	77.455
966.50	77.321
966.00	77.572
965.50	77.738
965.00	77.572
964.50	77.377
964.00	77.166
963.50	77.314
963.00	77.168
962.50	77.209
962.00	76.986
961.50	77.178
961.00	77.260
960.50	77.219
960.00	77.578
959.50	77.891
959.00	78.396
958.50	78.451
958.00	78.400
957.50	78.211
957.00	77.776
956.50	77.429
956.00	77.502
955.50	77.958
955.00	78.346
954.50	79.055
954.00	79.674
953.50	79.562
953.00	78.969
952.50	78.686
952.00	77.955
951.50	77.490
951.00	77.441
950.50	77.280
950.00	77.475
949.50	77.742
949.00	77.831
948.50	77.858
948.00	77.913
947.50	77.855
947.00	77.986
946.50	77.963
946.00	77.690
945.50	77.727
945.00	77.387
944.50	77.512
944.00	77.677
943.50	77.253
943.00	77.290
942.50	77.749
942.00	78.423
941.50	78.487
941.00	78.932
940.50	79.268
940.00	79.435
939.50	79.188
939.00	79.236
938.50	79.161
938.00	78.730
937.50	78.663
937.00	78.651
936.50	78.415
936.00	78.194
935.50	78.029
935.00	78.107
934.50	77.938
934.00	77.802
933.50	78.315
933.00	78.804
932.50	78.833
932.00	79.214
931.50	79.437
931.00	79.638
930.50	79.385
930.00	78.942
929.50	78.723
929.00	78.522
928.50	78.778
928.00	78.878
927.50	79.150
927.00	78.973
926.50	78.886
926.00	78.600
925.50	78.679
925.00	78.443
924.50	78.799
924.00	79.402
923.50	79.723
923.00	79.601
922.50	79.345
922.00	79.032
921.50	78.981
921.00	78.689
920.50	78.933
920.00	79.607
919.50	79.797
919.00	79.565
918.50	79.363
918.00	78.316
917.50	78.325
917.00	78.216
916.50	78.489
916.00	78.650
915.50	78.767
915.00	79.556
914.50	80.112
914.00	80.104
913.50	79.963
913.00	80.155
912.50	79.966
912.00	80.057
911.50	79.335
911.00	78.653
910.50	78.755
910.00	78.829
909.50	79.027
909.00	79.131
908.50	78.900
908.00	79.295
907.50	80.379
907.00	80.626
906.50	80.421
906.00	80.163
905.50	79.715
905.00	79.752
904.50	78.943
904.00	78.969
903.50	79.219
903.00	79.361
902.50	79.886
902.00	80.345
901.50	80.483
901.00	80.583
900.50	80.745
900.00	80.250
899.50	79.788
899.00	79.626
898.50	79.781
898.00	79.840
897.50	79.647
897.00	79.831
896.50	79.923
896.00	79.479
895.50	79.588
895.00	79.333
894.50	79.300
894.00	79.851
893.50	80.510
893.00	81.253
892.50	81.326
892.00	81.504
891.50	81.522
891.00	80.796
890.50	80.492
890.00	80.487
889.50	79.864
889.00	79.551
888.50	79.929
888.00	80.363
887.50	80.736
887.00	80.399
886.50	80.455
886.00	80.364
885.50	80.511
885.00	80.615
884.50	81.113
884.00	80.840
883.50	81.044
883.00	81.191
882.50	80.919
882.00	80.473
881.50	79.994
881.00	79.815
880.50	79.781
880.00	79.931
879.50	80.615
879.00	80.919
878.50	81.796
878.00	81.662
877.50	81.638
877.00	81.345
876.50	81.047
876.00	80.538
875.50	80.407
875.00	80.359
874.50	80.533
874.00	80.863
873.50	81.010
873.00	81.327
872.50	81.557
872.00	81.786
871.50	82.318
871.00	82.242
870.50	81.666
870.00	81.088
869.50	79.992
869.00	79.334
868.50	78.670
868.00	78.725
867.50	79.610
867.00	80.550
866.50	81.301
866.00	81.687
865.50	81.554
865.00	81.364
864.50	80.979
864.00	80.478
863.50	80.462
863.00	80.892
862.50	81.540
862.00	82.401
861.50	82.497
861.00	82.194
860.50	82.043
860.00	81.591
859.50	80.932
859.00	80.642
858.50	80.072
858.00	80.429
857.50	81.194
857.00	81.541
856.50	81.787
856.00	81.983
855.50	82.189
855.00	82.327
854.50	82.360
854.00	82.165
853.50	82.160
853.00	82.240
852.50	82.455
852.00	82.781
851.50	82.376
851.00	82.452
850.50	82.723
850.00	82.543
849.50	82.291
849.00	82.129
848.50	81.850
848.00	81.779
847.50	82.259
847.00	82.297
846.50	82.478
846.00	82.725
845.50	83.125
845.00	83.187
844.50	82.428
844.00	82.243
843.50	82.116
843.00	81.846
842.50	81.918
842.00	82.344
841.50	82.318
841.00	82.086
840.50	82.180
840.00	81.927
839.50	81.779
839.00	82.027
838.50	82.233
838.00	82.604
837.50	82.431
837.00	82.637
836.50	82.710
836.00	82.743
835.50	82.501
835.00	82.898
834.50	83.373
834.00	83.327
833.50	83.495
833.00	83.204
832.50	82.960
832.00	83.211
831.50	83.147
831.00	83.162
830.50	83.043
830.00	83.116
829.50	83.173
829.00	83.540
828.50	83.448
828.00	83.295
827.50	83.374
827.00	83.216
826.50	83.528
826.00	83.420
825.50	83.303
825.00	83.470
824.50	83.607
824.00	84.076
823.50	84.039
823.00	83.857
822.50	83.383
822.00	83.194
821.50	83.134
821.00	83.400
820.50	83.621
820.00	83.638
819.50	84.271
819.00	84.582
818.50	84.761
818.00	84.601
817.50	84.438
817.00	84.715
816.50	84.630
816.00	84.647
815.50	84.821
815.00	84.714
814.50	84.561
814.00	84.495
813.50	84.299
813.00	84.041
812.50	84.230
812.00	84.363
811.50	84.449
811.00	84.435
810.50	84.661
810.00	84.914
809.50	85.050
809.00	84.852
808.50	85.002
808.00	85.059
807.50	85.334
807.00	85.321
806.50	85.243
806.00	85.045
805.50	85.090
805.00	85.455
804.50	85.458
804.00	85.355
803.50	85.431
803.00	85.412
802.50	85.578
802.00	85.523
801.50	85.606
801.00	85.655
800.50	85.735
800.00	85.646
799.50	85.651
799.00	85.291
798.50	85.107
798.00	85.254
797.50	85.377
797.00	85.607
796.50	85.875
796.00	85.964
795.50	85.979
795.00	85.932
794.50	85.937
794.00	85.796
793.50	85.877
793.00	85.822
792.50	86.043
792.00	86.080
791.50	86.192
791.00	86.277
790.50	86.136
790.00	85.987
789.50	86.142
789.00	86.095
788.50	85.966
788.00	85.865
787.50	85.845
787.00	85.942
786.50	86.240
786.00	86.304
785.50	86.394
785.00	86.269
784.50	86.220
784.00	86.341
783.50	86.267
783.00	86.005
782.50	86.109
782.00	86.233
781.50	86.509
781.00	86.692
780.50	86.716
780.00	86.577
779.50	86.696
779.00	86.693
778.50	86.511
778.00	86.347
777.50	86.182
777.00	86.363
776.50	86.660
776.00	86.882
775.50	86.938
775.00	86.780
774.50	86.778
774.00	86.818
773.50	86.776
773.00	86.622
772.50	86.748
772.00	86.775
771.50	86.759
771.00	86.804
770.50	86.686
770.00	86.596
769.50	86.578
769.00	86.684
768.50	86.785
768.00	86.779
767.50	86.823
767.00	86.983
766.50	86.875
766.00	86.796
765.50	86.784
765.00	86.809
764.50	86.669
764.00	86.617
763.50	86.667
763.00	86.684
762.50	86.598
762.00	86.599
761.50	86.725
761.00	86.840
760.50	86.977
760.00	87.219
759.50	87.354
759.00	87.508
758.50	87.619
758.00	87.622
757.50	87.480
757.00	87.299
756.50	87.126
756.00	87.016
755.50	86.836
755.00	86.753
754.50	86.842
754.00	86.962
753.50	87.124
753.00	87.292
752.50	87.361
752.00	87.360
751.50	87.365
751.00	87.329
750.50	87.412
750.00	87.480
749.50	87.676
749.00	87.790
748.50	87.893
748.00	88.054
747.50	88.165
747.00	88.231
746.50	88.310
746.00	88.538
745.50	88.727
745.00	88.925
744.50	88.970
744.00	88.977
743.50	88.969
743.00	88.861
742.50	88.845
742.00	88.783
741.50	88.721
741.00	88.633
740.50	88.548
740.00	88.398
739.50	88.246
739.00	88.098
738.50	87.949
738.00	87.945
737.50	87.956
737.00	87.978
736.50	87.997
736.00	88.076
735.50	88.084
735.00	88.164
734.50	88.195
734.00	88.203
733.50	88.289
733.00	88.232
732.50	88.210
732.00	88.137
731.50	88.048
731.00	88.060
730.50	88.095
730.00	88.203
729.50	88.325
729.00	88.412
728.50	88.418
728.00	88.497
727.50	88.451
727.00	88.407
726.50	88.391
726.00	88.279
725.50	88.277
725.00	88.311
724.50	88.287
724.00	88.276
723.50	88.226
723.00	88.189
722.50	88.205
722.00	88.120
721.50	88.068
721.00	88.092
720.50	88.107
720.00	88.218
719.50	88.310
719.00	88.453
718.50	88.488
718.00	88.541
717.50	88.496
717.00	88.430
716.50	88.297
716.00	88.176
715.50	88.104
715.00	88.101
714.50	88.185
714.00	88.275
713.50	88.415
713.00	88.496
712.50	88.439
712.00	88.485
711.50	88.420
711.00	88.386
710.50	88.366
710.00	88.368
709.50	88.378
709.00	88.383
708.50	88.357
708.00	88.409
707.50	88.446
707.00	88.471
706.50	88.568
706.00	88.563
705.50	88.537
705.00	88.466
704.50	88.365
704.00	88.265
703.50	88.211
703.00	88.137
702.50	88.183
702.00	88.243
701.50	88.289
701.00	88.325
700.50	88.381
700.00	88.436
699.50	88.508
699.00	88.482
698.50	88.515
698.00	88.464
697.50	88.486
697.00	88.517
696.50	88.535
696.00	88.530
695.50	88.490
695.00	88.493
694.50	88.451
694.00	88.447
693.50	88.493
693.00	88.567
692.50	88.665
692.00	88.722
691.50	88.751
691.00	88.704
690.50	88.622
690.00	88.562
689.50	88.526
689.00	88.530
688.50	88.559
688.00	88.623
687.50	88.620
687.00	88.618
686.50	88.684
686.00	88.657
685.50	88.592
685.00	88.511
684.50	88.451
684.00	88.427
683.50	88.417
683.00	88.419
682.50	88.463
682.00	88.458
681.50	88.508
681.00	88.555
680.50	88.523
680.00	88.446
679.50	88.484
679.00	88.453
678.50	88.413
678.00	88.342
677.50	88.298
677.00	88.319
676.50	88.396
676.00	88.407
675.50	88.458
675.00	88.472
674.50	88.462
674.00	88.484
673.50	88.465
673.00	88.480
672.50	88.490
672.00	88.548
671.50	88.580
671.00	88.552
670.50	88.518
670.00	88.525
669.50	88.601
669.00	88.630
668.50	88.631
668.00	88.681
667.50	88.631
667.00	88.556
666.50	88.489
666.00	88.466
665.50	88.456
665.00	88.518
664.50	88.518
664.00	88.531
663.50	88.541
663.00	88.498
662.50	88.511
662.00	88.515
661.50	88.485
661.00	88.533
660.50	88.603
660.00	88.549
659.50	88.539
659.00	88.562
658.50	88.627
658.00	88.666
657.50	88.634
657.00	88.636
656.50	88.618
656.00	88.560
655.50	88.531
655.00	88.498
654.50	88.462
654.00	88.507
653.50	88.639
653.00	88.590
652.50	88.598
652.00	88.594
651.50	88.675
651.00	88.714
650.50	88.702
650.00	88.669
649.50	88.672
649.00	88.682
648.50	88.667
648.00	88.623
647.50	88.604
647.00	88.588
646.50	88.587
646.00	88.583
645.50	88.563
645.00	88.520
644.50	88.513
644.00	88.576
643.50	88.639
643.00	88.677
642.50	88.698
642.00	88.691
641.50	88.697
641.00	88.693
640.50	88.721
640.00	88.654
639.50	88.618
639.00	88.647
638.50	88.614
638.00	88.590
637.50	88.537
637.00	88.560
636.50	88.552
636.00	88.594
635.50	88.593
635.00	88.589
634.50	88.613
634.00	88.641
633.50	88.616
633.00	88.617
632.50	88.599
632.00	88.577
631.50	88.572
631.00	88.538
630.50	88.524
630.00	88.567
629.50	88.572
629.00	88.564
628.50	88.573
628.00	88.578
627.50	88.592
627.00	88.540
626.50	88.461
626.00	88.485
625.50	88.524
625.00	88.512
624.50	88.492
624.00	88.468
623.50	88.425
623.00	88.472
622.50	88.501
622.00	88.530
621.50	88.569
621.00	88.566
620.50	88.614
620.00	88.620
619.50	88.627
619.00	88.622
618.50	88.622
618.00	88.626
617.50	88.646
617.00	88.664
616.50	88.658
616.00	88.642
615.50	88.588
615.00	88.560
614.50	88.528
614.00	88.462
613.50	88.423
613.00	88.412
612.50	88.417
612.00	88.510
611.50	88.568
611.00	88.580
610.50	88.547
610.00	88.477
609.50	88.475
609.00	88.467
608.50	88.463
608.00	88.470
607.50	88.481
607.00	88.546
606.50	88.589
606.00	88.577
605.50	88.533
605.00	88.550
604.50	88.534
604.00	88.545
603.50	88.551
603.00	88.565
602.50	88.600
602.00	88.621
601.50	88.586
601.00	88.518
600.50	88.422
600.00	88.373
599.50	88.315
599.00	88.221
598.50	88.213
598.00	88.228
597.50	88.286
597.00	88.301
596.50	88.350
596.00	88.335
595.50	88.378
595.00	88.404
594.50	88.426
594.00	88.454
593.50	88.444
593.00	88.431
592.50	88.438
592.00	88.476
591.50	88.532
591.00	88.534
590.50	88.549
590.00	88.529
589.50	88.561
589.00	88.480
588.50	88.479
588.00	88.464
587.50	88.516
587.00	88.585
586.50	88.639
586.00	88.702
585.50	88.685
585.00	88.709
584.50	88.725
584.00	88.699
583.50	88.594
583.00	88.504
582.50	88.424
582.00	88.347
581.50	88.278
581.00	88.229
580.50	88.194
580.00	88.121
579.50	88.127
579.00	88.172
578.50	88.179
578.00	88.240
577.50	88.273
577.00	88.340
576.50	88.303
576.00	88.286
575.50	88.241
575.00	88.227
574.50	88.197
574.00	88.180
573.50	88.187
573.00	88.137
572.50	88.116
572.00	88.129
571.50	88.142
571.00	88.162
570.50	88.146
570.00	88.153
569.50	88.109
569.00	88.113
568.50	88.100
568.00	88.135
567.50	88.164
567.00	88.152
566.50	88.151
566.00	88.089
565.50	88.001
565.00	87.946
564.50	87.929
564.00	87.953
563.50	87.976
563.00	87.982
562.50	88.014
562.00	88.013
561.50	87.936
561.00	87.892
560.50	87.874
560.00	87.886
559.50	87.922
559.00	87.937
558.50	87.995
558.00	87.994
557.50	87.971
557.00	88.012
556.50	87.945
556.00	87.887
555.50	87.864
555.00	87.831
554.50	87.785
554.00	87.801
553.50	87.792
553.00	87.860
552.50	87.903
552.00	87.919
551.50	87.956
551.00	87.964
550.50	87.941
550.00	87.936
549.50	87.847
549.00	87.802
548.50	87.771
548.00	87.722
547.50	87.707
547.00	87.700
546.50	87.695
546.00	87.698
545.50	87.678
545.00	87.638
544.50	87.648
