ｻﾝﾌﾟﾙ:	Ag_200_900__05%R.txt
ﾌｧｲﾙ名:	Ag_200_900__05%R.txt.UDS
分析日時:	'14:38:18, 09/27/2024
ｵﾍﾟﾚｰﾀ:	OB
ｺﾒﾝﾄ:	'

光度計
ﾓﾃﾞﾙ:	U-3900形分光光度計
ｼﾘｱﾙ No.:	'3004-010
ROM Ver.:	2J25300 07

装置条件
測定ﾓｰﾄﾞ:	波長ｽｷｬﾝ
ﾃﾞｰﾀﾓｰﾄﾞ:	%R
開始波長:	900.00 nm
終了波長:	200.00 nm
ｽｷｬﾝｽﾋﾟｰﾄﾞ:	60 nm/min
ｻﾝﾌﾟﾘﾝｸﾞ間隔:	0.10 nm
初期待ち時間:	0 s
繰り返し周期:	0.0 min
測定回数:	1
測定前ｵｰﾄｾﾞﾛ:	Off
ｽﾘｯﾄ:	0.5 nm
ﾎﾄﾏﾙ電圧:	自動制御
光源切換ﾓｰﾄﾞ:	自動切換
光源切換波長:	340.00 nm
ﾍﾞｰｽﾗｲﾝ設定:	ﾕｰｻﾞ 1
高分解能測定:	Off
D2ﾗﾝﾌﾟ:	On
WIﾗﾝﾌﾟ:	On
R/S反転:	Off

ﾋﾟｰｸ検出
検出方法:	Rectangular
感度:	1
しきい値:	0.0100

ﾋﾟｰｸ
ﾋﾟｰｸ No.	開始 (nm)	ﾋﾟｰｸ (nm)	終了 (nm)	高さ (%R)	ﾊﾞﾚｰ (nm)	ﾊﾞﾚｰ (%R)
1	900.00	898.90	898.20	84.290	898.20	87.344
2	898.20	897.40	896.80	84.590	896.80	85.651
3	896.80	896.40	895.30	82.750	895.30	84.986
4	895.30	894.70	894.40	81.018	894.40	85.708
5	894.40	893.80	893.10	82.077	893.10	86.590
6	893.10	891.90	891.40	83.185	891.40	86.241
7	891.40	890.80	889.60	84.759	889.60	87.929
8	889.60	888.40	887.90	82.432	887.90	84.952
9	887.90	887.40	886.50	80.069	886.50	86.149
10	886.50	885.80	885.10	81.892	885.10	86.778
11	885.10	884.70	883.60	82.746	883.60	86.342
12	883.60	883.30	882.70	85.059	882.70	86.789
13	882.70	882.30	881.00	81.881	881.00	87.855
14	881.00	879.60	879.10	81.988	879.10	86.946
15	879.10	878.60	878.00	81.808	878.00	88.082
16	878.00	877.40	876.40	84.840	876.40	88.041
17	876.40	875.20	873.90	82.012	873.90	88.358
18	873.90	873.20	873.00	84.812	873.00	86.454
19	873.00	872.40	872.10	85.049	872.10	87.114
20	872.10	871.50	871.20	83.424	871.20	86.191
21	871.20	870.60	869.80	82.885	869.80	85.978
22	869.80	868.00	867.10	82.243	867.10	88.347
23	867.10	866.60	865.10	84.552	865.10	89.511
24	865.10	864.60	864.20	85.000	864.20	87.814
25	864.20	863.90	863.30	85.013	863.30	87.530
26	863.30	862.60	862.10	83.683	862.10	87.076
27	862.10	860.50	859.70	83.460	859.70	88.219
28	859.70	859.10	858.70	83.563	858.70	88.931
29	858.70	857.80	856.70	84.282	856.70	87.395
30	856.70	855.00	854.60	84.114	854.60	86.895
31	854.60	853.50	853.00	84.674	853.00	87.414
32	853.00	852.60	851.30	85.298	851.30	87.618
33	851.30	850.90	850.10	84.943	850.10	87.828
34	850.10	849.80	849.00	84.988	849.00	88.958
35	849.00	848.30	848.00	86.239	848.00	88.550
36	848.00	847.20	846.90	87.535	846.90	88.767
37	846.90	846.20	845.60	83.278	845.60	88.737
38	845.60	844.40	843.70	84.570	843.70	88.271
39	843.70	843.20	842.60	86.082	842.60	88.916
40	842.60	842.30	841.00	86.236	841.00	88.859
41	841.00	840.00	839.30	86.158	839.30	89.332
42	839.30	838.00	837.70	86.222	837.70	88.241
43	837.70	837.10	836.50	85.070	836.50	88.936
44	836.50	835.90	835.50	85.737	835.50	87.515
45	835.50	834.90	834.30	85.500	834.30	88.851
46	834.30	834.00	833.50	86.382	833.50	88.916
47	833.50	833.20	832.70	87.237	832.70	89.774
48	832.70	831.90	831.30	85.537	831.30	89.772
49	831.30	830.90	830.30	87.301	830.30	89.233
50	830.30	830.00	829.30	86.895	829.30	90.107
51	829.30	828.40	827.90	86.428	827.90	88.500
52	827.90	827.70	827.10	87.003	827.10	90.058
53	827.10	826.20	825.20	87.208	825.20	90.268
54	825.20	824.00	823.70	87.183	823.70	88.179
55	823.70	823.50	822.50	87.386	822.50	89.960
56	822.50	821.60	820.80	86.986	820.80	90.632
57	820.80	820.20	819.70	87.599	819.70	90.344
58	819.70	818.80	818.60	88.009	818.60	88.825
59	818.60	817.30	816.80	87.746	816.80	90.779
60	816.80	816.20	815.60	87.048	815.60	88.851
61	815.60	815.00	814.30	87.195	814.30	90.707
62	814.30	813.90	813.30	87.600	813.30	89.691
63	813.30	812.20	811.80	88.326	811.80	90.272
64	811.80	811.30	810.00	87.105	810.00	90.148
65	810.00	809.50	809.20	87.965	809.20	90.553
66	809.20	808.80	807.50	87.585	807.50	90.249
67	807.50	807.30	807.00	89.149	807.00	90.304
68	807.00	806.40	805.40	88.486	805.40	90.164
69	805.40	805.00	803.40	88.703	803.40	90.310
70	803.40	802.80	802.10	88.569	802.10	91.453
71	802.10	801.40	800.70	88.767	800.70	90.059
72	800.70	800.40	798.70	88.224	798.70	90.814
73	798.70	797.40	796.60	88.842	796.60	90.192
74	796.60	795.80	794.60	89.104	794.60	90.898
75	794.60	794.00	793.60	88.563	793.60	90.692
76	793.60	793.00	792.30	88.852	792.30	90.715
77	792.30	791.60	790.90	89.940	790.90	90.780
78	790.90	789.60	787.90	89.438	787.90	91.291
79	787.90	787.60	786.90	90.086	786.90	90.637
80	786.90	786.40	785.90	89.253	785.90	91.332
81	785.90	784.70	783.50	89.407	783.50	91.946
82	783.50	782.90	781.70	89.835	781.70	91.000
83	781.70	780.90	780.50	89.415	780.50	90.563
84	780.50	780.00	778.90	89.741	778.90	90.701
85	778.90	778.60	777.70	89.460	777.70	90.822
86	777.70	777.10	776.20	90.104	776.20	91.618
87	776.20	775.70	775.10	90.565	775.10	91.844
88	775.10	774.70	774.40	90.662	774.40	91.703
89	774.40	773.40	772.90	90.371	772.90	91.876
90	772.90	772.50	771.50	90.570	771.50	91.584
91	771.50	770.90	770.40	90.075	770.40	91.769
92	770.40	769.10	768.10	90.222	768.10	91.309
93	768.10	767.10	765.90	89.786	765.90	90.939
94	765.90	765.40	764.50	90.263	764.50	91.698
95	764.50	763.00	762.40	90.469	762.40	91.696
96	762.40	760.90	759.80	90.300	759.80	91.488
97	759.80	759.20	759.00	90.898	759.00	91.665
98	759.00	757.70	757.30	90.656	757.30	91.607
99	757.30	756.90	755.80	90.586	755.80	91.551
100	755.80	755.30	754.90	90.442	754.90	91.435
101	754.90	754.30	754.00	90.835	754.00	91.625
102	754.00	752.70	751.70	90.244	751.70	92.047
103	751.70	751.20	750.20	91.044	750.20	91.748
104	750.20	749.60	749.00	90.782	749.00	91.609
105	749.00	748.70	748.20	91.085	748.20	92.359
106	748.20	747.60	746.30	91.593	746.30	93.038
107	746.30	745.90	744.10	91.999	744.10	93.352
108	744.10	743.30	742.70	92.834	742.70	93.799
109	742.70	742.30	741.90	92.749	741.90	93.629
110	741.90	739.90	739.00	91.902	739.00	92.247
111	739.00	738.00	737.40	91.128	737.40	92.212
112	737.40	736.40	735.90	91.216	735.90	92.401
113	735.90	735.20	734.50	91.516	734.50	92.043
114	734.50	734.20	733.60	91.274	733.60	91.878
115	733.60	732.30	730.30	90.850	730.30	92.463
116	730.30	729.90	728.80	91.295	728.80	92.505
117	728.80	727.00	725.50	91.082	725.50	91.887
118	725.50	725.20	724.80	91.460	724.80	91.810
119	724.80	724.40	723.90	91.383	723.90	92.127
120	723.90	723.30	722.10	91.375	722.10	92.445
121	722.10	721.20	720.60	90.985	720.60	92.154
122	720.60	720.20	719.90	91.646	719.90	91.984
123	719.90	719.40	718.80	91.509	718.80	91.927
124	718.80	718.10	717.90	91.393	717.90	91.717
125	717.90	717.10	716.80	91.494	716.80	91.754
126	716.80	716.20	715.60	91.371	715.60	92.099
127	715.60	714.50	714.20	91.462	714.20	92.065
128	714.20	713.70	713.20	91.538	713.20	91.958
129	713.20	711.90	710.70	91.349	710.70	92.106
130	710.70	709.70	709.00	90.971	709.00	92.197
131	709.00	708.10	707.60	91.279	707.60	91.981
132	707.60	707.00	706.60	91.063	706.60	91.751
133	706.60	706.30	705.80	91.330	705.80	91.794
134	705.80	705.10	704.50	91.545	704.50	92.021
135	704.50	704.20	703.60	91.501	703.60	91.933
136	703.60	703.20	702.50	91.494	702.50	92.163
137	702.50	701.80	701.40	91.633	701.40	91.907
138	701.40	700.70	700.20	91.552	700.20	91.775
139	700.20	699.60	697.80	91.311	697.80	92.048
140	697.80	697.20	696.30	91.423	696.30	92.051
141	696.30	695.80	695.30	91.706	695.30	92.075
142	695.30	694.60	693.50	91.428	693.50	91.815
143	693.50	692.40	691.90	91.307	691.90	91.992
144	691.90	690.60	689.80	91.180	689.80	92.268
145	689.80	689.20	688.70	91.629	688.70	91.978
146	688.70	687.40	686.90	91.304	686.90	92.083
147	686.90	686.50	686.10	91.699	686.10	91.968
148	686.10	685.50	684.90	91.766	684.90	91.872
149	684.90	684.40	684.00	91.725	684.00	92.012
150	684.00	683.50	683.00	91.583	683.00	92.232
151	683.00	682.10	681.50	91.476	681.50	92.157
152	681.50	681.10	680.60	91.601	680.60	91.795
153	680.60	679.80	678.90	91.478	678.90	91.711
154	678.90	678.00	677.50	91.429	677.50	91.895
155	677.50	676.60	676.00	91.327	676.00	91.805
156	676.00	675.50	674.40	91.247	674.40	91.847
157	674.40	673.80	672.70	91.222	672.70	91.586
158	672.70	672.40	670.90	91.247	670.90	91.895
159	670.90	669.20	668.60	91.467	668.60	91.978
160	668.60	668.00	667.50	91.336	667.50	92.119
161	667.50	667.10	666.20	91.614	666.20	91.861
162	666.20	665.80	665.20	91.418	665.20	91.843
163	665.20	664.90	663.10	91.395	663.10	91.778
164	663.10	662.70	662.10	91.391	662.10	91.814
165	662.10	661.10	660.70	91.510	660.70	91.690
166	660.70	660.20	659.30	91.483	659.30	92.077
167	659.30	658.60	657.30	91.234	657.30	91.825
168	657.30	656.80	656.20	91.584	656.20	91.807
169	656.20	655.70	655.20	91.451	655.20	91.964
170	655.20	653.90	653.60	91.331	653.60	91.640
171	653.60	653.00	652.20	91.201	652.20	91.756
172	652.20	651.70	651.20	91.372	651.20	92.053
173	651.20	650.70	650.40	91.572	650.40	92.073
174	650.40	649.80	649.30	91.660	649.30	91.993
175	649.30	648.00	647.30	91.390	647.30	91.895
176	647.30	646.90	646.20	91.131	646.20	91.615
177	646.20	645.80	645.60	91.457	645.60	91.630
178	645.60	644.80	644.40	91.421	644.40	91.734
179	644.40	644.00	643.50	91.478	643.50	91.982
180	643.50	642.80	642.40	91.243	642.40	91.658
181	642.40	640.70	640.10	91.194	640.10	91.847
182	640.10	639.60	638.40	91.400	638.40	91.760
183	638.40	638.00	637.60	91.559	637.60	91.731
184	637.60	637.10	636.80	91.447	636.80	91.711
185	636.80	636.00	635.80	91.553	635.80	91.722
186	635.80	635.20	634.80	91.391	634.80	91.580
187	634.80	633.90	633.60	91.405	633.60	91.654
188	633.60	633.10	632.50	91.444	632.50	91.870
189	632.50	632.00	631.60	91.138	631.60	91.593
190	631.60	631.20	630.60	91.303	630.60	91.692
191	630.60	630.30	629.80	91.319	629.80	91.543
192	629.80	629.20	627.90	91.288	627.90	91.579
193	627.90	626.70	626.20	91.098	626.20	91.586
194	626.20	625.60	624.40	91.227	624.40	91.791
195	624.40	623.50	622.90	91.260	622.90	91.831
196	622.90	622.50	621.90	91.318	621.90	91.707
197	621.90	621.40	620.90	91.450	620.90	91.628
198	620.90	620.40	619.80	91.197	619.80	91.557
199	619.80	619.00	618.20	91.165	618.20	91.781
200	618.20	617.50	616.90	91.366	616.90	91.656
201	616.90	616.10	615.00	90.942	615.00	91.469
202	615.00	614.10	612.60	91.130	612.60	91.609
203	612.60	611.60	611.00	91.194	611.00	91.526
204	611.00	610.20	609.80	91.152	609.80	91.540
205	609.80	609.30	608.60	91.314	608.60	91.618
206	608.60	606.80	605.70	91.255	605.70	91.415
207	605.70	605.40	604.30	91.279	604.30	91.722
208	604.30	603.80	602.70	91.136	602.70	91.525
209	602.70	602.30	601.30	91.125	601.30	91.435
210	601.30	601.00	600.60	91.170	600.60	91.431
211	600.60	600.10	599.80	90.795	599.80	91.446
212	599.80	599.00	598.30	90.934	598.30	91.361
213	598.30	597.90	597.30	90.871	597.30	91.286
214	597.30	596.60	595.80	90.716	595.80	91.254
215	595.80	594.90	594.30	90.845	594.30	91.235
216	594.30	593.20	592.60	90.688	592.60	91.548
217	592.60	591.30	589.60	90.805	589.60	91.390
218	589.60	589.20	588.70	91.134	588.70	91.422
219	588.70	588.20	587.70	91.063	587.70	91.494
220	587.70	587.40	586.10	91.074	586.10	91.809
221	586.10	585.50	583.80	91.179	583.80	91.956
222	583.80	583.20	582.90	91.217	582.90	91.460
223	582.90	580.10	579.40	90.445	579.40	90.867
224	579.40	579.20	578.90	90.691	578.90	90.840
225	578.90	578.10	577.10	90.664	577.10	91.083
226	577.10	576.60	576.00	90.648	576.00	90.950
227	576.00	575.30	574.70	90.365	574.70	90.836
228	574.70	573.90	573.50	90.599	573.50	90.863
229	573.50	572.70	572.10	90.428	572.10	90.776
230	572.10	571.30	570.80	90.437	570.80	91.007
231	570.80	569.80	569.00	90.512	569.00	90.968
232	569.00	567.60	566.90	90.321	566.90	90.690
233	566.90	566.20	565.80	90.172	565.80	90.691
234	565.80	565.10	564.50	90.204	564.50	90.577
235	564.50	564.00	563.50	90.283	563.50	90.572
236	563.50	563.00	562.30	90.076	562.30	90.406
237	562.30	561.80	561.20	90.243	561.20	90.643
238	561.20	559.90	559.40	89.980	559.40	90.630
239	559.40	558.90	558.30	90.061	558.30	90.422
240	558.30	557.70	557.10	90.080	557.10	90.357
241	557.10	555.90	555.50	89.877	555.50	90.300
242	555.50	555.00	554.10	89.992	554.10	90.340
243	554.10	553.90	553.30	90.091	553.30	90.282
244	553.30	552.70	551.90	90.063	551.90	90.386
245	551.90	551.30	550.90	90.046	550.90	90.347
246	550.90	550.60	550.00	89.872	550.00	90.214
247	550.00	549.20	548.30	89.759	548.30	90.208
248	548.30	547.30	545.60	89.793	545.60	90.335
249	545.60	544.60	544.40	89.908	544.40	89.994
250	544.40	543.60	542.70	89.604	542.70	90.072
251	542.70	541.70	541.00	89.787	541.00	89.991
252	541.00	540.70	539.50	89.839	539.50	90.216
253	539.50	538.40	537.70	89.790	537.70	90.147
254	537.70	537.30	536.70	89.801	536.70	90.086
255	536.70	536.10	535.20	89.867	535.20	90.248
256	535.20	534.60	534.20	89.873	534.20	90.117
257	534.20	534.00	533.20	89.930	533.20	90.201
258	533.20	532.60	532.20	89.714	532.20	90.102
259	532.20	531.70	531.20	89.819	531.20	90.149
260	531.20	530.50	530.00	89.668	530.00	90.100
261	530.00	529.60	529.20	89.867	529.20	90.139
262	529.20	528.70	528.30	89.867	528.30	90.268
263	528.30	527.50	527.10	90.068	527.10	90.189
264	527.10	526.60	526.00	89.827	526.00	90.260
265	526.00	525.00	524.60	90.101	524.60	90.268
266	524.60	523.40	522.10	89.938	522.10	90.436
267	522.10	521.40	520.80	90.303	520.80	90.610
268	520.80	520.10	519.30	90.239	519.30	90.789
269	519.30	518.80	517.70	90.351	517.70	90.699
270	517.70	517.20	515.90	90.407	515.90	90.696
271	515.90	514.70	514.10	90.443	514.10	90.616
272	514.10	513.30	513.10	90.546	513.10	90.655
273	513.10	510.40	510.10	90.371	510.10	90.539
274	510.10	508.80	508.20	90.072	508.20	90.554
275	508.20	507.50	506.90	90.205	506.90	90.453
276	506.90	504.90	504.40	89.940	504.40	90.142
277	504.40	503.80	503.30	89.917	503.30	90.255
278	503.30	502.70	501.90	89.829	501.90	90.148
279	501.90	501.00	500.50	89.764	500.50	90.194
280	500.50	500.00	499.60	89.729	499.60	90.054
281	499.60	499.20	497.90	89.683	497.90	90.080
282	497.90	497.50	496.90	89.822	496.90	90.215
283	496.90	495.20	494.00	89.559	494.00	90.049
284	494.00	493.60	493.20	89.860	493.20	90.104
285	493.20	492.70	491.40	89.630	491.40	90.007
286	491.40	491.10	490.00	89.815	490.00	89.986
287	490.00	489.60	489.00	89.737	489.00	90.112
288	489.00	488.40	487.80	89.812	487.80	90.074
289	487.80	487.50	486.80	89.760	486.80	90.061
290	486.80	485.60	484.70	89.711	484.70	90.193
291	484.70	484.10	483.70	89.775	483.70	90.132
292	483.70	483.30	482.90	89.830	482.90	90.199
293	482.90	482.40	482.00	89.784	482.00	89.988
294	482.00	481.70	481.10	89.735	481.10	89.989
295	481.10	480.10	479.60	89.684	479.60	89.829
296	479.60	478.40	477.90	89.342	477.90	89.567
297	477.90	477.40	477.00	89.284	477.00	89.619
298	477.00	475.80	475.20	89.249	475.20	89.594
299	475.20	473.70	473.40	89.227	473.40	89.395
300	473.40	472.90	472.40	89.245	472.40	89.509
301	472.40	471.80	471.30	89.226	471.30	89.477
302	471.30	470.70	469.40	89.081	469.40	89.430
303	469.40	468.80	468.50	89.130	468.50	89.285
304	468.50	467.90	467.60	89.146	467.60	89.421
305	467.60	467.20	466.20	88.996	466.20	89.268
306	466.20	465.80	464.80	88.972	464.80	89.287
307	464.80	463.70	462.90	88.835	462.90	89.024
308	462.90	461.70	461.20	88.757	461.20	88.903
309	461.20	460.20	459.20	88.705	459.20	88.975
310	459.20	457.40	457.00	88.604	457.00	88.759
311	457.00	456.00	455.50	88.399	455.50	88.525
312	455.50	454.60	454.30	88.324	454.30	88.456
313	454.30	451.90	451.40	88.054	451.40	88.339
314	451.40	451.00	450.50	87.984	450.50	88.225
315	450.50	449.20	448.70	87.316	448.70	87.842
316	448.70	446.70	446.20	87.090	446.20	87.384
317	446.20	445.50	444.50	86.873	444.50	87.268
318	444.50	444.00	443.70	86.899	443.70	87.160
319	443.70	442.40	441.90	86.415	441.90	86.727
320	441.90	441.00	440.70	86.137	440.70	86.396
321	440.70	440.10	439.50	86.010	439.50	86.291
322	439.50	437.50	436.90	85.270	436.90	85.506
323	436.90	435.70	435.10	84.807	435.10	84.984
324	435.10	434.30	433.80	84.183	433.80	84.529
325	433.80	427.60	427.20	81.169	427.20	81.490
326	427.20	411.80	411.20	71.639	411.20	71.889
327	411.20	409.40	409.10	71.198	409.10	71.484
328	409.10	408.60	408.10	70.925	408.10	71.362
329	408.10	407.60	406.90	70.994	406.90	71.513
330	406.90	406.00	404.90	70.787	404.90	71.007
331	404.90	403.20	402.80	70.861	402.80	71.136
332	402.80	402.20	401.00	70.758	401.00	71.289
333	401.00	399.80	398.90	71.004	398.90	71.376
334	398.90	397.70	397.10	70.925	397.10	71.391
335	397.10	396.70	395.70	71.086	395.70	71.604
336	395.70	395.20	394.60	71.077	394.60	71.625
337	394.60	394.20	393.70	71.266	393.70	71.600
338	393.70	393.20	392.60	71.287	392.60	71.551
339	392.60	391.90	390.80	70.999	390.80	71.515
340	390.80	390.40	390.10	71.298	390.10	71.788
341	390.10	389.40	388.60	71.278	388.60	71.910
342	388.60	387.90	387.50	71.405	387.50	72.044
343	387.50	387.00	385.80	71.568	385.80	72.086
344	385.80	385.10	384.50	71.580	384.50	71.967
345	384.50	383.60	383.10	71.530	383.10	72.206
346	383.10	382.70	382.00	71.867	382.00	72.494
347	382.00	381.20	380.60	71.891	380.60	72.522
348	380.60	380.10	379.50	72.045	379.50	72.505
349	379.50	379.00	378.50	72.029	378.50	72.369
350	378.50	378.00	376.80	71.991	376.80	72.759
351	376.80	376.30	374.50	72.396	374.50	72.960
352	374.50	374.10	373.70	72.461	373.70	73.117
353	373.70	373.30	372.50	72.411	372.50	72.996
354	372.50	372.00	371.10	72.607	371.10	73.032
355	371.10	370.70	370.30	72.746	370.30	73.027
356	370.30	369.50	368.90	72.454	368.90	73.092
357	368.90	368.40	367.70	72.941	367.70	73.248
358	367.70	367.00	365.70	72.779	365.70	73.382
359	365.70	365.20	364.60	72.821	364.60	73.068
360	364.60	364.30	363.90	72.737	363.90	73.067
361	363.90	363.40	362.80	72.412	362.80	72.793
362	362.80	361.60	361.10	72.052	361.10	72.610
363	361.10	360.50	360.30	72.061	360.30	72.484
364	360.30	357.60	356.80	71.608	356.80	71.884
365	356.80	356.20	355.80	71.575	355.80	71.969
366	355.80	355.20	354.80	71.169	354.80	71.828
367	354.80	354.20	353.60	71.198	353.60	71.653
368	353.60	353.10	352.60	70.928	352.60	71.292
369	352.60	352.00	351.60	70.426	351.60	71.011
370	351.60	350.70	350.20	70.290	350.20	70.704
371	350.20	349.70	349.10	70.069	349.10	70.470
372	349.10	348.60	347.90	69.806	347.90	70.423
373	347.90	346.30	346.10	69.692	346.10	70.040
374	346.10	344.80	344.30	68.570	344.30	69.018
375	344.30	343.50	343.20	68.667	343.20	69.065
376	343.20	340.30	339.60	67.405	339.60	71.886
377	339.60	339.30	338.70	71.073	338.70	71.313
378	338.70	337.80	337.40	70.260	337.40	70.404
379	337.40	307.40	307.00	2.703	307.00	2.734
380	307.00	306.60	273.10	2.683	273.10	11.270
381	273.10	272.70	271.30	11.230	271.30	11.451
382	271.30	270.80	269.90	11.329	269.90	11.470
383	269.90	268.80	268.40	11.376	268.40	11.453
384	268.40	265.90	265.60	11.162	265.60	11.205
385	265.60	237.20	205.70	0.692	205.70	34.873

ﾃﾞｰﾀﾘｽﾄ
nm	%R
900.00	87.970
899.90	87.323
899.80	86.740
899.70	86.607
899.60	86.877
899.50	87.472
899.40	88.218
899.30	88.287
899.20	86.884
899.10	85.350
899.00	84.770
898.90	84.290
898.80	84.476
898.70	84.343
898.60	84.644
898.50	85.340
898.40	85.977
898.30	86.702
898.20	87.344
898.10	86.422
898.00	86.274
897.90	86.551
897.80	86.462
897.70	85.990
897.60	85.660
897.50	84.744
897.40	84.590
897.30	84.623
897.20	84.918
897.10	85.292
897.00	85.164
896.90	85.074
896.80	85.651
896.70	84.953
896.60	83.794
896.50	83.154
896.40	82.750
896.30	83.020
896.20	83.955
896.10	83.800
896.00	84.506
895.90	83.872
895.80	83.948
895.70	83.448
895.60	83.753
895.50	84.367
895.40	84.773
895.30	84.986
895.20	84.779
895.10	84.264
895.00	83.415
894.90	82.689
894.80	81.922
894.70	81.018
894.60	82.668
894.50	84.609
894.40	85.708
894.30	85.402
894.20	84.880
894.10	84.308
894.00	82.965
893.90	82.301
893.80	82.077
893.70	82.316
893.60	82.474
893.50	84.568
893.40	85.789
893.30	86.090
893.20	85.967
893.10	86.590
893.00	85.926
892.90	86.022
892.80	85.867
892.70	85.785
892.60	84.567
892.50	85.220
892.40	85.400
892.30	85.593
892.20	84.178
892.10	83.770
892.00	83.769
891.90	83.185
891.80	83.683
891.70	84.905
891.60	85.260
891.50	86.161
891.40	86.241
891.30	86.212
891.20	85.483
891.10	85.955
891.00	86.007
890.90	85.481
890.80	84.759
890.70	85.854
890.60	86.525
890.50	85.830
890.40	85.724
890.30	86.084
890.20	86.397
890.10	86.501
890.00	86.581
889.90	86.731
889.80	87.082
889.70	87.647
889.60	87.929
889.50	87.055
889.40	85.351
889.30	85.006
889.20	83.811
889.10	83.561
889.00	82.626
888.90	83.309
888.80	85.023
888.70	84.724
888.60	84.324
888.50	83.737
888.40	82.432
888.30	82.827
888.20	82.948
888.10	83.299
888.00	84.257
887.90	84.952
887.80	84.469
887.70	83.509
887.60	81.699
887.50	80.375
887.40	80.069
887.30	80.252
887.20	80.809
887.10	82.371
