ｻﾝﾌﾟﾙ:	Au_200_900__05%R.txt
ﾌｧｲﾙ名:	Au_200_900__05%R.txt.UDS
分析日時:	'14:22:54, 09/27/2024
ｵﾍﾟﾚｰﾀ:	OB
ｺﾒﾝﾄ:	'

光度計
ﾓﾃﾞﾙ:	U-3900形分光光度計
ｼﾘｱﾙ No.:	'3004-010
ROM Ver.:	2J25300 07

装置条件
測定ﾓｰﾄﾞ:	波長ｽｷｬﾝ
ﾃﾞｰﾀﾓｰﾄﾞ:	%R
開始波長:	900.00 nm
終了波長:	200.00 nm
ｽｷｬﾝｽﾋﾟｰﾄﾞ:	60 nm/min
ｻﾝﾌﾟﾘﾝｸﾞ間隔:	0.10 nm
初期待ち時間:	0 s
繰り返し周期:	0.0 min
測定回数:	1
測定前ｵｰﾄｾﾞﾛ:	Off
ｽﾘｯﾄ:	0.5 nm
ﾎﾄﾏﾙ電圧:	自動制御
光源切換ﾓｰﾄﾞ:	自動切換
光源切換波長:	340.00 nm
ﾍﾞｰｽﾗｲﾝ設定:	ﾕｰｻﾞ 1
高分解能測定:	Off
D2ﾗﾝﾌﾟ:	On
WIﾗﾝﾌﾟ:	On
R/S反転:	Off

ﾋﾟｰｸ検出
検出方法:	Rectangular
感度:	1
しきい値:	0.0100

ﾋﾟｰｸ
ﾋﾟｰｸ No.	開始 (nm)	ﾋﾟｰｸ (nm)	終了 (nm)	高さ (%R)	ﾊﾞﾚｰ (nm)	ﾊﾞﾚｰ (%R)
1	897.80	896.90	895.80	89.164	895.80	92.728
2	895.80	895.40	894.70	87.933	894.70	92.862
3	894.70	894.00	892.80	88.377	892.80	94.455
4	892.80	892.20	891.70	90.598	891.70	92.737
5	891.70	890.70	890.10	89.028	890.10	93.479
6	890.10	889.20	888.70	89.623	888.70	93.803
7	888.70	888.20	887.80	88.342	887.80	93.345
8	887.80	887.40	886.50	86.601	886.50	94.413
9	886.50	885.80	885.10	87.305	885.10	93.594
10	885.10	883.90	883.00	90.225	883.00	93.598
11	883.00	882.30	881.80	89.866	881.80	93.245
12	881.80	881.50	881.00	90.947	881.00	94.515
13	881.00	880.40	879.10	88.570	879.10	94.108
14	879.10	878.60	877.90	91.533	877.90	94.310
15	877.90	875.70	874.80	89.684	874.80	94.506
16	874.80	874.30	873.90	92.281	873.90	95.676
17	873.90	872.80	872.50	91.425	872.50	92.958
18	872.50	872.10	871.20	90.387	871.20	92.945
19	871.20	870.60	869.50	89.671	869.50	94.838
20	869.50	868.90	868.40	89.450	868.40	91.643
21	868.40	868.10	866.20	89.237	866.20	96.231
22	866.20	865.00	864.50	92.620	864.50	95.693
23	864.50	863.90	863.50	92.210	863.50	94.553
24	863.50	863.00	862.30	89.712	862.30	95.444
25	862.30	861.10	860.60	89.970	860.60	93.089
26	860.60	860.10	859.70	90.663	859.70	96.586
27	859.70	859.30	858.80	91.440	858.80	96.049
28	858.80	857.00	855.70	89.758	855.70	95.270
29	855.70	854.90	854.40	91.439	854.40	95.356
30	854.40	853.20	852.70	92.017	852.70	94.772
31	852.70	851.70	851.30	92.073	851.30	94.407
32	851.30	850.70	850.20	91.197	850.20	93.635
33	850.20	849.30	848.70	91.204	848.70	94.441
34	848.70	848.30	847.60	92.478	847.60	96.953
35	847.60	846.00	845.70	90.495	845.70	94.803
36	845.70	845.30	844.00	92.516	844.00	94.730
37	844.00	843.40	842.80	92.160	842.80	96.474
38	842.80	842.30	842.00	92.111	842.00	95.080
39	842.00	841.40	841.00	91.723	841.00	94.126
40	841.00	840.70	839.10	92.230	839.10	95.919
41	839.10	837.40	836.90	93.130	836.90	96.042
42	836.90	836.20	835.60	93.678	835.60	95.870
43	835.60	835.10	834.30	93.279	834.30	97.063
44	834.30	833.10	832.70	93.593	832.70	97.261
45	832.70	832.00	830.30	92.057	830.30	95.742
46	830.30	830.00	829.20	93.456	829.20	97.220
47	829.20	828.60	828.20	94.346	828.20	96.476
48	828.20	827.60	827.00	93.339	827.00	96.210
49	827.00	826.40	825.30	93.373	825.30	97.904
50	825.30	824.70	824.30	94.429	824.30	96.774
51	824.30	823.80	823.10	94.821	823.10	96.372
52	823.10	822.70	822.30	94.353	822.30	95.994
53	822.30	821.90	820.60	93.183	820.60	98.025
54	820.60	818.90	818.20	93.606	818.20	95.644
55	818.20	817.90	816.80	94.467	816.80	97.054
56	816.80	816.10	814.10	93.101	814.10	96.726
57	814.10	813.70	813.20	94.962	813.20	96.878
58	813.20	812.80	812.40	95.431	812.40	97.216
59	812.40	812.00	811.70	96.105	811.70	97.265
60	811.70	811.10	809.20	93.964	809.20	97.249
61	809.20	808.80	808.30	94.484	808.30	97.333
62	808.30	808.00	807.00	96.114	807.00	97.331
63	807.00	806.40	804.40	94.728	804.40	97.209
64	804.40	803.90	803.30	95.108	803.30	98.425
65	803.30	802.80	802.30	95.420	802.30	98.130
66	802.30	801.80	801.10	96.509	801.10	97.682
67	801.10	800.00	799.30	95.059	799.30	97.583
68	799.30	796.90	796.20	95.807	796.20	97.358
69	796.20	795.90	794.60	96.307	794.60	97.392
70	794.60	793.40	793.10	96.522	793.10	97.818
71	793.10	792.50	792.00	96.047	792.00	97.974
72	792.00	791.40	790.60	96.136	790.60	97.653
73	790.60	790.30	789.90	96.680	789.90	97.883
74	789.90	789.50	788.80	96.085	788.80	97.485
75	788.80	788.20	787.90	96.730	787.90	97.887
76	787.90	787.40	786.60	96.360	786.60	98.196
77	786.60	785.60	785.30	97.134	785.30	98.031
78	785.30	784.70	783.80	96.180	783.80	98.324
79	783.80	783.00	782.10	96.712	782.10	97.610
80	782.10	781.00	779.90	96.857	779.90	98.323
81	779.90	779.30	778.90	96.415	778.90	98.201
82	778.90	778.40	776.90	96.862	776.90	98.101
83	776.90	776.40	776.10	97.235	776.10	98.191
84	776.10	775.70	774.40	96.861	774.40	98.664
85	774.40	773.40	772.80	97.107	772.80	98.446
86	772.80	772.40	771.60	97.653	771.60	98.345
87	771.60	771.10	770.40	97.390	770.40	99.080
88	770.40	769.70	769.20	96.738	769.20	98.324
89	769.20	768.60	768.20	96.903	768.20	98.440
90	768.20	767.50	766.20	96.605	766.20	98.330
91	766.20	765.70	764.10	97.205	764.10	98.743
92	764.10	763.40	762.50	97.647	762.50	98.556
93	762.50	761.40	761.00	97.119	761.00	98.343
94	761.00	760.30	759.00	97.387	759.00	98.555
95	759.00	757.60	757.30	97.103	757.30	98.144
96	757.30	756.60	755.90	96.975	755.90	98.284
97	755.90	755.40	754.80	97.231	754.80	98.355
98	754.80	754.40	753.90	97.524	753.90	98.578
99	753.90	752.70	751.30	96.956	751.30	98.624
100	751.30	750.70	750.20	97.773	750.20	98.395
101	750.20	748.90	747.90	97.652	747.90	98.570
102	747.90	747.50	747.20	98.044	747.20	98.853
103	747.20	746.60	746.30	98.050	746.30	99.119
104	746.30	745.90	745.40	97.904	745.40	99.059
105	745.40	744.80	743.50	98.375	743.50	99.355
106	743.50	742.80	742.00	98.843	742.00	99.844
107	742.00	741.50	741.00	98.122	741.00	99.182
108	741.00	739.20	738.50	97.771	738.50	98.770
109	738.50	736.40	735.80	97.503	735.80	99.054
110	735.80	735.40	734.80	98.028	734.80	98.305
111	734.80	734.10	733.50	98.131	733.50	98.681
112	733.50	732.70	731.20	97.537	731.20	98.321
113	731.20	730.60	730.20	97.942	730.20	98.325
114	730.20	729.90	728.80	97.739	728.80	99.095
115	728.80	726.90	725.00	97.131	725.00	98.055
116	725.00	724.50	724.00	97.336	724.00	98.692
117	724.00	723.30	722.10	97.705	722.10	98.686
118	722.10	720.40	719.70	97.653	719.70	98.576
119	719.70	719.00	718.70	97.934	718.70	98.471
120	718.70	718.20	717.40	98.037	717.40	98.436
121	717.40	717.10	716.70	97.992	716.70	98.540
122	716.70	716.10	713.70	97.471	713.70	98.268
123	713.70	712.80	712.30	97.564	712.30	97.988
124	712.30	711.90	710.60	97.415	710.60	98.375
125	710.60	709.90	709.40	97.549	709.40	98.088
126	709.40	708.10	707.60	97.533	707.60	98.197
127	707.60	707.10	706.60	97.316	706.60	98.287
128	706.60	706.20	705.70	97.404	705.70	98.092
129	705.70	705.30	704.90	97.669	704.90	98.096
130	704.90	704.20	703.00	97.437	703.00	98.159
131	703.00	702.30	701.90	97.571	701.90	98.259
132	701.90	700.60	699.90	97.562	699.90	97.996
133	699.90	699.30	698.80	97.592	698.80	98.052
134	698.80	698.20	697.70	97.403	697.70	98.230
135	697.70	697.20	696.30	97.833	696.30	98.194
136	696.30	695.60	695.00	97.756	695.00	98.027
137	695.00	694.20	693.60	97.512	693.60	97.778
138	693.60	693.20	692.70	97.342	692.70	98.027
139	692.70	691.50	691.00	97.383	691.00	97.664
140	691.00	690.60	689.50	97.500	689.50	97.994
141	689.50	688.90	688.70	97.781	688.70	97.993
142	688.70	688.10	687.60	97.433	687.60	97.617
143	687.60	686.70	686.00	97.410	686.00	97.823
144	686.00	684.90	684.10	97.393	684.10	97.822
145	684.10	682.10	681.50	97.481	681.50	97.718
146	681.50	681.10	680.20	97.304	680.20	97.697
147	680.20	679.70	678.70	97.144	678.70	97.658
148	678.70	678.00	677.50	97.002	677.50	97.451
149	677.50	676.60	676.10	96.890	676.10	97.419
150	676.10	675.00	674.30	96.685	674.30	97.170
151	674.30	673.60	671.40	96.723	671.40	97.605
152	671.40	669.60	668.90	96.763	668.90	97.287
153	668.90	668.10	666.90	96.835	666.90	97.396
154	666.90	666.40	665.50	96.848	665.50	97.168
155	665.50	664.90	664.10	96.597	664.10	96.843
156	664.10	662.70	662.10	96.499	662.10	96.817
157	662.10	661.50	661.10	96.420	661.10	96.825
158	661.10	660.50	659.30	96.574	659.30	96.956
159	659.30	657.70	657.30	96.256	657.30	96.596
160	657.30	656.30	656.00	96.276	656.00	96.523
161	656.00	655.40	655.10	96.220	655.10	96.493
162	655.10	653.70	653.30	95.673	653.30	95.927
163	653.30	652.70	652.20	95.462	652.20	95.933
164	652.20	651.70	651.20	95.726	651.20	96.217
165	651.20	650.70	650.20	95.729	650.20	95.961
166	650.20	649.90	649.10	95.733	649.10	95.931
167	649.10	648.00	647.40	95.335	647.40	95.820
168	647.40	646.50	646.00	95.241	646.00	95.567
169	646.00	645.50	644.70	95.133	644.70	95.441
170	644.70	644.00	643.60	95.142	643.60	95.474
171	643.60	643.00	642.40	94.871	642.40	95.209
172	642.40	641.40	640.10	94.482	640.10	95.059
173	640.10	638.80	637.50	94.267	637.50	94.530
174	637.50	637.00	636.40	94.106	636.40	94.561
175	636.40	636.00	635.70	94.078	635.70	94.432
176	635.70	635.10	634.70	93.880	634.70	94.218
177	634.70	634.00	633.60	94.012	633.60	94.305
178	633.60	633.00	632.40	93.742	632.40	94.312
179	632.40	631.90	630.60	93.647	630.60	94.135
180	630.60	628.90	627.80	93.258	627.80	93.830
181	627.80	627.20	626.10	93.280	626.10	93.849
182	626.10	625.60	624.50	93.183	624.50	93.745
183	624.50	623.00	622.70	93.187	622.70	93.354
184	622.70	622.20	621.90	93.139	621.90	93.504
185	621.90	621.40	620.90	93.059	620.90	93.390
186	620.90	619.10	618.20	92.742	618.20	93.082
187	618.20	617.00	616.50	92.605	616.50	92.909
188	616.50	615.40	614.90	92.319	614.90	92.608
189	614.90	613.30	612.60	92.224	612.60	92.704
190	612.60	610.80	610.30	91.967	610.30	92.318
191	610.30	609.30	608.80	91.824	608.80	92.132
192	608.80	608.50	608.00	91.918	608.00	92.068
193	608.00	606.80	606.30	91.636	606.30	92.080
194	606.30	605.10	604.30	91.476	604.30	91.727
195	604.30	603.80	603.10	91.223	603.10	91.573
196	603.10	602.40	601.20	90.884	601.20	91.497
197	601.20	600.00	599.60	90.579	599.60	91.044
198	599.60	599.00	598.40	90.422	598.40	90.872
199	598.40	597.90	597.70	90.422	597.70	90.728
200	597.70	597.00	596.70	90.011	596.70	90.285
201	596.70	596.40	595.80	90.054	595.80	90.528
202	595.80	595.30	594.90	89.982	594.90	90.384
203	594.90	593.90	593.50	89.802	593.50	90.198
204	593.50	593.10	592.50	89.826	592.50	90.379
205	592.50	591.10	590.40	89.546	590.40	89.949
206	590.40	589.90	589.50	89.438	589.50	89.743
207	589.50	588.90	588.60	89.354	588.60	89.714
208	588.60	587.30	586.00	89.048	586.00	89.388
209	586.00	584.90	584.40	88.845	584.40	89.277
210	584.40	580.70	580.10	87.711	580.10	87.948
211	580.10	579.60	578.40	87.502	578.40	87.972
212	578.40	577.60	577.20	87.495	577.20	87.713
213	577.20	575.20	574.80	86.854	574.80	87.102
214	574.80	574.00	573.50	86.517	573.50	86.821
215	573.50	572.30	571.90	86.115	571.90	86.397
216	571.90	571.30	570.80	85.887	570.80	86.452
217	570.80	569.40	569.20	85.735	569.20	85.829
218	569.20	567.90	567.30	85.200	567.30	85.487
219	567.30	565.10	564.50	84.358	564.50	84.635
220	564.50	561.80	561.20	83.601	561.20	83.788
221	561.20	558.40	558.00	82.575	558.00	82.834
222	558.00	552.70	552.10	80.668	552.10	80.881
223	552.10	549.20	548.70	79.619	548.70	79.772
224	548.70	547.20	546.80	78.671	546.80	78.869
225	546.80	485.50	485.00	36.439	485.00	36.562
226	485.00	477.60	477.00	34.947	477.00	35.191
227	477.00	474.60	474.00	34.789	474.00	34.910
228	474.00	472.80	472.00	34.658	472.00	34.805
229	472.00	470.70	469.70	34.654	469.70	34.781
230	469.70	469.00	467.70	34.629	467.70	34.820
231	467.70	467.40	467.10	34.719	467.10	34.771
232	467.10	466.60	466.20	34.721	466.20	34.806
233	466.20	465.70	465.10	34.684	465.10	34.840
234	465.10	464.30	463.80	34.687	463.80	34.906
235	463.80	462.60	462.10	34.738	462.10	34.861
236	462.10	461.70	461.20	34.741	461.20	34.955
237	461.20	460.70	459.60	34.771	459.60	34.948
238	459.60	459.30	458.00	34.759	458.00	35.025
239	458.00	457.40	457.00	34.903	457.00	35.008
240	457.00	456.70	455.40	34.884	455.40	35.091
241	455.40	454.90	454.00	34.962	454.00	35.117
242	454.00	453.40	452.80	34.907	452.80	35.122
243	452.80	452.00	451.40	34.967	451.40	35.182
244	451.40	451.00	449.90	35.048	449.90	35.211
245	449.90	449.00	448.00	35.017	448.00	35.209
246	448.00	446.60	446.20	35.046	446.20	35.134
247	446.20	445.70	445.40	35.031	445.40	35.153
248	445.40	444.90	442.90	34.991	442.90	35.322
249	442.90	442.40	441.90	35.179	441.90	35.331
250	441.90	441.60	440.70	35.189	440.70	35.370
251	440.70	439.40	438.90	35.193	438.90	35.368
252	438.90	438.50	436.10	35.167	436.10	35.456
253	436.10	435.50	434.70	35.303	434.70	35.522
254	434.70	434.10	433.70	35.312	433.70	35.601
255	433.70	432.50	431.30	35.209	431.30	35.626
256	431.30	430.70	430.40	35.392	430.40	35.521
257	430.40	429.90	429.40	35.241	429.40	35.602
258	429.40	428.00	427.30	35.353	427.30	35.563
259	427.30	426.60	426.10	35.309	426.10	35.503
260	426.10	425.30	424.20	35.321	424.20	35.507
261	424.20	423.50	422.60	35.382	422.60	35.571
262	422.60	421.90	421.40	35.362	421.40	35.482
263	421.40	421.00	420.50	35.258	420.50	35.470
264	420.50	420.10	419.20	35.305	419.20	35.641
265	419.20	418.60	418.40	35.351	418.40	35.497
266	418.40	418.00	416.80	35.351	416.80	35.524
267	416.80	416.30	415.50	35.352	415.50	35.516
268	415.50	415.20	414.60	35.358	414.60	35.565
269	414.60	414.00	412.90	35.402	412.90	35.509
270	412.90	412.40	411.70	35.299	411.70	35.334
271	411.70	411.40	410.80	35.170	410.80	35.503
272	410.80	410.30	410.00	35.323	410.00	35.517
273	410.00	409.30	408.30	35.200	408.30	35.479
274	408.30	407.20	406.80	35.249	406.80	35.420
275	406.80	405.50	404.90	35.213	404.90	35.398
276	404.90	403.60	402.90	35.129	402.90	35.348
277	402.90	402.20	401.80	35.176	401.80	35.318
278	401.80	400.70	400.20	35.067	400.20	35.277
279	400.20	399.30	398.60	35.115	398.60	35.382
280	398.60	397.90	397.10	34.885	397.10	35.339
281	397.10	395.10	394.70	35.038	394.70	35.202
282	394.70	394.30	393.80	34.892	393.80	35.248
283	393.80	392.10	391.40	34.611	391.40	34.953
284	391.40	389.40	388.30	34.660	388.30	34.941
285	388.30	387.90	387.50	34.643	387.50	34.966
286	387.50	387.00	386.60	34.646	386.60	34.933
287	386.60	384.60	384.10	34.471	384.10	34.625
288	384.10	383.60	383.10	34.420	383.10	34.602
289	383.10	382.80	382.40	34.433	382.40	34.655
290	382.40	381.90	381.00	34.394	381.00	34.535
291	381.00	380.10	379.60	34.219	379.60	34.441
292	379.60	379.00	378.60	34.116	378.60	34.320
293	378.60	377.40	376.80	34.079	376.80	34.311
294	376.80	376.20	375.10	33.952	375.10	34.212
295	375.10	373.20	372.50	33.726	372.50	33.993
296	372.50	370.80	370.40	33.617	370.40	33.771
297	370.40	369.40	368.90	33.352	368.90	33.623
298	368.90	368.50	368.20	33.455	368.20	33.578
299	368.20	367.10	366.70	33.316	366.70	33.603
300	366.70	365.40	365.00	33.188	365.00	33.372
301	365.00	364.20	363.50	33.071	363.50	33.310
302	363.50	363.10	362.90	33.026	362.90	33.192
303	362.90	362.20	361.40	32.870	361.40	33.033
304	361.40	360.50	359.90	32.662	359.90	33.010
305	359.90	358.30	358.10	32.479	358.10	32.657
306	358.10	357.60	357.10	32.527	357.10	32.684
307	357.10	356.90	356.40	32.547	356.40	32.706
308	356.40	356.10	355.70	32.549	355.70	32.731
309	355.70	355.00	354.30	32.347	354.30	32.594
310	354.30	353.00	352.40	32.401	352.40	32.558
311	352.40	351.60	351.10	32.374	351.10	32.503
312	351.10	350.60	350.10	32.215	350.10	32.485
313	350.10	349.70	349.20	32.252	349.20	32.582
314	349.20	348.70	347.90	32.350	347.90	32.664
315	347.90	347.30	345.70	32.450	345.70	32.851
316	345.70	344.90	343.70	32.370	343.70	32.896
317	343.70	343.40	341.50	32.740	341.50	33.132
318	341.50	340.90	338.50	32.765	338.50	34.555
319	338.50	337.40	335.90	34.365	335.90	34.657
320	335.90	335.40	334.30	34.573	334.30	34.812
321	334.30	333.90	332.70	34.686	332.70	34.959
322	332.70	332.30	331.80	34.831	331.80	34.952
323	331.80	331.10	329.60	34.855	329.60	35.190
324	329.60	329.20	328.70	35.082	328.70	35.274
325	328.70	328.20	324.90	34.946	324.90	35.444
326	324.90	324.40	322.20	35.304	322.20	35.648
327	322.20	321.50	320.40	35.505	320.40	35.725
328	320.40	319.90	318.40	35.551	318.40	35.942
329	318.40	317.80	317.00	35.646	317.00	35.952
330	317.00	315.70	315.20	35.769	315.20	35.970
331	315.20	314.60	314.20	35.800	314.20	35.997
332	314.20	313.60	312.20	35.867	312.20	36.073
333	312.20	311.30	310.70	35.991	310.70	36.082
334	310.70	310.50	309.60	36.014	309.60	36.172
335	309.60	308.70	308.40	35.959	308.40	36.209
336	308.40	307.30	306.40	36.015	306.40	36.322
337	306.40	305.90	304.40	36.177	304.40	36.317
338	304.40	303.40	302.80	36.149	302.80	36.339
339	302.80	302.60	301.80	36.251	301.80	36.437
340	301.80	301.20	300.70	36.206	300.70	36.464
341	300.70	300.20	299.90	36.315	299.90	36.467
342	299.90	299.40	298.10	36.244	298.10	36.511
343	298.10	297.10	296.60	36.236	296.60	36.541
344	296.60	295.30	294.60	36.328	294.60	36.611
345	294.60	293.50	292.40	36.445	292.40	36.635
346	292.40	291.50	290.90	36.384	290.90	36.662
347	290.90	290.50	289.80	36.443	289.80	36.585
348	289.80	289.30	287.80	36.348	287.80	36.763
349	287.80	286.80	285.60	36.589	285.60	36.768
350	285.60	284.60	284.20	36.655	284.20	36.847
351	284.20	283.60	282.30	36.656	282.30	36.824
352	282.30	281.60	281.10	36.737	281.10	36.983
353	281.10	280.00	278.90	36.660	278.90	37.100
354	278.90	278.40	277.90	36.853	277.90	37.000
355	277.90	277.30	276.70	36.858	276.70	36.965
356	276.70	276.40	275.90	36.858	275.90	37.094
357	275.90	274.60	273.40	36.786	273.40	36.925
358	273.40	272.50	272.20	36.666	272.20	36.802
359	272.20	271.60	271.20	36.634	271.20	36.789
360	271.20	270.70	270.30	36.567	270.30	36.699
361	270.30	268.70	267.80	36.188	267.80	36.313
362	267.80	267.40	267.10	36.128	267.10	36.207
363	267.10	260.10	259.80	34.845	259.80	35.045
364	259.80	257.10	256.70	34.231	256.70	34.480
365	256.70	254.90	254.30	33.940	254.30	34.039
366	254.30	250.70	250.30	33.328	250.30	33.415
367	250.30	250.00	249.60	33.219	249.60	33.371
368	249.60	249.10	248.70	33.075	248.70	33.286
369	248.70	247.40	247.10	33.011	247.10	33.098
370	247.10	245.80	245.60	32.919	245.60	32.975
371	245.60	242.40	242.10	32.576	242.10	32.672
372	242.10	241.80	241.20	32.603	241.20	32.708
373	241.20	240.40	240.10	32.447	240.10	32.528
374	240.10	239.50	238.70	32.299	238.70	32.563
375	238.70	237.60	237.10	32.277	237.10	32.416
376	237.10	236.60	236.10	32.202	236.10	32.318
377	236.10	235.70	233.70	32.177	233.70	32.317
378	233.70	231.90	231.10	32.092	231.10	32.298
379	231.10	229.80	228.90	32.036	228.90	32.250
380	228.90	228.10	227.90	32.125	227.90	32.219
381	227.90	227.30	226.80	32.093	226.80	32.286
382	226.80	226.30	225.10	32.194	225.10	32.271
383	225.10	224.40	223.90	32.139	223.90	32.345
384	223.90	223.40	222.80	32.091	222.80	32.346
385	222.80	222.00	221.20	32.155	221.20	32.279
386	221.20	220.50	219.60	32.078	219.60	32.206
387	219.60	218.60	217.70	31.970	217.70	32.210
388	217.70	217.00	216.50	31.967	216.50	32.137
389	216.50	216.00	215.60	31.895	215.60	32.049
390	215.60	214.10	213.80	31.607	213.80	31.796
391	213.80	212.00	211.70	31.279	211.70	31.472
392	211.70	211.20	210.80	31.302	210.80	31.418
393	210.80	210.20	209.30	31.155	209.30	31.418
394	209.30	208.80	208.30	30.943	208.30	31.238
395	208.30	207.50	207.10	30.744	207.10	30.942
396	207.10	206.50	205.20	30.671	205.20	30.903
397	205.20	204.90	204.50	30.749	204.50	30.879
398	204.50	203.90	203.30	30.335	203.30	30.764
399	203.30	203.00	202.70	30.542	202.70	30.783
400	202.70	202.20	201.90	30.601	201.90	30.789
401	201.90	201.20	200.00	30.434	200.00	30.553

ﾃﾞｰﾀﾘｽﾄ
nm	%R
900.00	89.305
899.90	89.642
899.80	90.512
899.70	91.547
899.60	92.131
899.50	92.863
899.40	93.313
899.30	93.605
899.20	92.228
899.10	90.958
899.00	90.452
898.90	90.347
898.80	89.948
898.70	90.186
898.60	90.628
898.50	91.217
898.40	92.192
898.30	92.190
898.20	91.849
898.10	91.387
898.00	91.579
897.90	92.741
897.80	92.840
897.70	92.620
897.60	92.596
897.50	91.765
897.40	91.692
897.30	91.328
897.20	90.374
897.10	89.821
897.00	89.935
896.90	89.164
896.80	89.827
896.70	90.508
896.60	90.910
896.50	91.302
896.40	91.341
896.30	91.840
896.20	91.994
896.10	91.774
896.00	92.235
895.90	92.164
895.80	92.728
895.70	91.822
895.60	90.606
895.50	89.018
895.40	87.933
895.30	88.645
895.20	89.712
895.10	89.686
895.00	90.595
894.90	92.060
894.80	92.642
894.70	92.862
894.60	92.502
894.50	91.577
894.40	91.377
894.30	90.559
894.20	88.987
894.10	88.696
894.00	88.377
893.90	89.905
893.80	92.525
893.70	91.794
893.60	91.087
893.50	90.582
893.40	90.734
893.30	91.369
893.20	91.662
893.10	92.675
893.00	93.527
892.90	94.199
892.80	94.455
892.70	93.680
892.60	92.533
892.50	91.312
892.40	91.560
